X(m)	Mach	V(m/s)	P(Pa)	T(K)	Rho(kg/m3)	H	H2	O	O2	OH	HO2	H2O2	AR	H2O	Therm(1/s)
0	4.9112537	1804.2608	20000	295	0.22462848	0	0.021653547	0	0.17179415	0	0	0	0.80655231	0	-1.24E-22
0	0.44014235	404.36154	587362.9	1941.6415	1.0022921	0	0.021653547	0	0.17179415	0	0	0	0.80655231	0	-400.84063
5.81E-20	0.44014235	404.36154	587362.9	1941.6415	1.0022921	2.07E-22	0.021653547	1.39E-25	0.17179415	2.88E-20	6.75E-21	3.49E-37	0.80655231	3.87E-34	-400.84063
1.74E-19	0.44014235	404.36154	587362.9	1941.6415	1.0022921	6.20E-22	0.021653547	4.16E-25	0.17179415	8.64E-20	2.03E-20	1.90E-36	0.80655231	2.10E-33	-400.84063
4.07E-19	0.44014235	404.36154	587362.9	1941.6415	1.0022921	1.45E-21	0.021653547	9.70E-25	0.17179415	2.02E-19	4.73E-20	9.25E-36	0.80655231	1.02E-32	-400.84063
8.72E-19	0.44014235	404.36154	587362.9	1941.6415	1.0022921	3.10E-21	0.021653547	2.08E-24	0.17179415	4.32E-19	1.01E-19	4.02E-35	0.80655231	4.45E-32	-400.84063
1.80E-18	0.44014235	404.36154	587362.9	1941.6415	1.0022921	6.40E-21	0.021653547	4.30E-24	0.17179415	8.93E-19	2.09E-19	1.69E-34	0.80655231	1.87E-31	-400.84063
3.66E-18	0.44014235	404.36154	587362.9	1941.6415	1.0022921	1.30E-20	0.021653547	8.73E-24	0.17179415	1.81E-18	4.25E-19	6.94E-34	0.80655231	7.69E-31	-400.84063
7.38E-18	0.44014235	404.36154	587362.9	1941.6415	1.0022921	2.62E-20	0.021653547	1.76E-23	0.17179415	3.66E-18	8.58E-19	2.82E-33	0.80655231	3.12E-30	-400.84063
1.48E-17	0.44014235	404.36154	587362.9	1941.6415	1.0022921	5.27E-20	0.021653547	3.53E-23	0.17179415	7.34E-18	1.72E-18	1.14E-32	0.80655231	1.26E-29	-400.84063
2.97E-17	0.44014235	404.36154	587362.9	1941.6415	1.0022921	1.06E-19	0.021653547	7.08E-23	0.17179415	1.47E-17	3.45E-18	4.56E-32	0.80655231	5.05E-29	-400.84063
5.95E-17	0.44014235	404.36154	587362.9	1941.6415	1.0022921	2.11E-19	0.021653547	1.42E-22	0.17179415	2.95E-17	6.91E-18	1.83E-31	0.80655231	2.02E-28	-400.84063
1.19E-16	0.44014235	404.36154	587362.9	1941.6415	1.0022921	4.23E-19	0.021653547	2.84E-22	0.17179415	5.90E-17	1.38E-17	7.32E-31	0.80655231	8.10E-28	-400.84063
2.38E-16	0.44014235	404.36154	587362.9	1941.6415	1.0022921	8.46E-19	0.021653547	5.67E-22	0.17179415	1.18E-16	2.77E-17	2.93E-30	0.80655231	3.24E-27	-400.84063
4.76E-16	0.44014235	404.36154	587362.9	1941.6415	1.0022921	1.69E-18	0.021653547	1.14E-21	0.17179415	2.36E-16	5.53E-17	1.17E-29	0.80655231	1.30E-26	-400.84063
9.52E-16	0.44014235	404.36154	587362.9	1941.6415	1.0022921	3.38E-18	0.021653547	2.27E-21	0.17179415	4.72E-16	1.11E-16	4.69E-29	0.80655231	5.19E-26	-400.84063
1.90E-15	0.44014235	404.36154	587362.9	1941.6415	1.0022921	6.77E-18	0.021653547	4.54E-21	0.17179415	9.44E-16	2.21E-16	1.87E-28	0.80655231	2.08E-25	-400.84063
3.81E-15	0.44014235	404.36154	587362.9	1941.6415	1.0022921	1.35E-17	0.021653547	9.08E-21	0.17179415	1.89E-15	4.43E-16	7.50E-28	0.80655231	8.31E-25	-400.84063
7.62E-15	0.44014235	404.36154	587362.9	1941.6415	1.0022921	2.71E-17	0.021653547	1.82E-20	0.17179415	3.77E-15	8.85E-16	3.00E-27	0.80655231	3.32E-24	-400.84062
1.52E-14	0.44014235	404.36154	587362.9	1941.6415	1.0022921	5.42E-17	0.021653547	3.63E-20	0.17179415	7.55E-15	1.77E-15	1.20E-26	0.80655231	1.33E-23	-400.84062
3.05E-14	0.44014235	404.36154	587362.9	1941.6415	1.0022921	1.08E-16	0.021653547	7.27E-20	0.17179415	1.51E-14	3.54E-15	4.80E-26	0.80655231	5.32E-23	-400.84062
6.09E-14	0.44014235	404.36154	587362.9	1941.6415	1.0022921	2.17E-16	0.021653547	1.45E-19	0.17179415	3.02E-14	7.08E-15	1.92E-25	0.80655231	2.13E-22	-400.84062
1.22E-13	0.44014235	404.36154	587362.9	1941.6415	1.0022921	4.33E-16	0.021653547	2.91E-19	0.17179415	6.04E-14	1.42E-14	7.68E-25	0.80655231	8.51E-22	-400.84062
2.44E-13	0.44014235	404.36154	587362.9	1941.6415	1.0022921	8.67E-16	0.021653547	5.81E-19	0.17179415	1.21E-13	2.83E-14	3.07E-24	0.80655231	3.40E-21	-400.84061
4.88E-13	0.44014235	404.36154	587362.9	1941.6415	1.0022921	1.73E-15	0.021653547	1.16E-18	0.17179415	2.42E-13	5.67E-14	1.23E-23	0.80655231	1.36E-20	-400.84059
9.75E-13	0.44014235	404.36154	587362.9	1941.6415	1.0022921	3.47E-15	0.021653547	2.33E-18	0.17179415	4.83E-13	1.13E-13	4.91E-23	0.80655231	5.44E-20	-400.84055
1.95E-12	0.44014235	404.36154	587362.9	1941.6415	1.0022921	6.93E-15	0.021653547	4.65E-18	0.17179415	9.66E-13	2.27E-13	1.97E-22	0.80655231	2.18E-19	-400.84047
3.90E-12	0.44014235	404.36154	587362.9	1941.6415	1.0022921	1.39E-14	0.021653547	9.31E-18	0.17179415	1.93E-12	4.53E-13	7.86E-22	0.80655231	8.71E-19	-400.84031
7.80E-12	0.44014235	404.36154	587362.9	1941.6415	1.0022921	2.77E-14	0.021653547	1.87E-17	0.17179415	3.87E-12	9.06E-13	3.15E-21	0.80655231	3.48E-18	-400.83999
1.56E-11	0.44014235	404.36154	587362.9	1941.6415	1.0022921	5.55E-14	0.021653547	3.74E-17	0.17179415	7.73E-12	1.81E-12	1.26E-20	0.80655231	1.39E-17	-400.83936
3.12E-11	0.44014235	404.36154	587362.9	1941.6415	1.0022921	1.11E-13	0.021653547	7.54E-17	0.17179415	1.55E-11	3.63E-12	5.03E-20	0.80655231	5.57E-17	-400.8381
6.24E-11	0.44014235	404.36154	587362.9	1941.6415	1.0022921	2.22E-13	0.021653547	1.53E-16	0.17179415	3.09E-11	7.25E-12	2.01E-19	0.80655231	2.23E-16	-400.83558
1.25E-10	0.44014235	404.36154	587362.9	1941.6415	1.0022921	4.44E-13	0.021653547	3.13E-16	0.17179415	6.18E-11	1.45E-11	8.05E-19	0.80655231	8.92E-16	-400.83054
2.50E-10	0.44014235	404.36154	587362.9	1941.6415	1.0022921	8.88E-13	0.021653547	6.58E-16	0.17179415	1.24E-10	2.90E-11	3.22E-18	0.80655231	3.57E-15	-400.82045
3.74E-10	0.44014235	404.36154	587362.9	1941.6415	1.0022921	1.33E-12	0.021653547	1.03E-15	0.17179415	1.86E-10	4.35E-11	7.25E-18	0.80655231	8.03E-15	-400.81036
4.99E-10	0.44014235	404.36154	587362.9	1941.6415	1.0022921	1.78E-12	0.021653547	1.44E-15	0.17179415	2.47E-10	5.80E-11	1.29E-17	0.80655231	1.43E-14	-400.80027
6.24E-10	0.44014235	404.36154	587362.9	1941.6415	1.0022921	2.22E-12	0.021653547	1.88E-15	0.17179415	3.09E-10	7.25E-11	2.01E-17	0.80655231	2.23E-14	-400.79018
8.74E-10	0.44014235	404.36154	587362.9	1941.6415	1.0022921	3.11E-12	0.021653547	2.86E-15	0.17179415	4.33E-10	1.02E-10	3.95E-17	0.80655231	4.37E-14	-400.77001
1.12E-09	0.44014235	404.36154	587362.9	1941.6415	1.0022921	4.00E-12	0.021653547	3.96E-15	0.17179415	5.57E-10	1.31E-10	6.52E-17	0.80655231	7.22E-14	-400.74984
1.37E-09	0.44014235	404.36154	587362.9	1941.6415	1.0022921	4.89E-12	0.021653547	5.18E-15	0.17179415	6.80E-10	1.60E-10	9.74E-17	0.80655231	1.08E-13	-400.72966
1.87E-09	0.44014235	404.36154	587362.9	1941.6415	1.0022921	6.67E-12	0.021653547	8.01E-15	0.17179415	9.27E-10	2.18E-10	1.81E-16	0.80655231	2.01E-13	-400.68932
2.37E-09	0.44014235	404.36154	587362.9	1941.6415	1.0022921	8.45E-12	0.021653547	1.14E-14	0.17179414	1.17E-09	2.76E-10	2.91E-16	0.80655231	3.22E-13	-400.64899
3.37E-09	0.44014235	404.36154	587362.9	1941.6415	1.0022921	1.20E-11	0.021653547	1.95E-14	0.17179414	1.67E-09	3.92E-10	5.87E-16	0.80655231	6.50E-13	-400.56833
4.25E-09	0.44014235	404.36154	587362.9	1941.6415	1.0022921	1.52E-11	0.021653547	2.84E-14	0.17179414	2.10E-09	4.93E-10	9.32E-16	0.80655231	1.03E-12	-400.49752
5.12E-09	0.44014235	404.36154	587362.9	1941.6415	1.0022921	1.83E-11	0.021653547	3.89E-14	0.17179414	2.54E-09	5.95E-10	1.36E-15	0.80655231	1.50E-12	-400.42673
6.00E-09	0.44014235	404.36154	587362.9	1941.6415	1.0022921	2.14E-11	0.021653547	5.09E-14	0.17179414	2.97E-09	6.97E-10	1.86E-15	0.80655231	2.06E-12	-400.35595
7.75E-09	0.44014235	404.36154	587362.9	1941.6415	1.0022921	2.78E-11	0.021653547	7.96E-14	0.17179414	3.84E-09	9.01E-10	3.11E-15	0.80655231	3.44E-12	-400.21444
9.51E-09	0.44014235	404.36153	587362.9	1941.6415	1.0022921	3.41E-11	0.021653547	1.15E-13	0.17179414	4.71E-09	1.10E-09	4.67E-15	0.80655231	5.17E-12	-400.07299
1.13E-08	0.44014235	404.36153	587362.9	1941.6415	1.0022921	4.04E-11	0.021653547	1.56E-13	0.17179414	5.57E-09	1.31E-09	6.55E-15	0.80655231	7.25E-12	-399.93161
1.30E-08	0.44014235	404.36153	587362.9	1941.6415	1.0022921	4.68E-11	0.021653547	2.04E-13	0.17179414	6.44E-09	1.51E-09	8.75E-15	0.80655231	9.69E-12	-399.79029
1.48E-08	0.44014235	404.36153	587362.9	1941.6415	1.0022921	5.32E-11	0.021653547	2.58E-13	0.17179414	7.31E-09	1.72E-09	1.13E-14	0.80655231	1.25E-11	-399.64903
1.83E-08	0.44014235	404.36153	587362.9	1941.6415	1.0022921	6.60E-11	0.021653546	3.85E-13	0.17179414	9.04E-09	2.12E-09	1.73E-14	0.80655231	1.91E-11	-399.3667
2.18E-08	0.44014235	404.36153	587362.9	1941.6415	1.0022921	7.89E-11	0.021653546	5.38E-13	0.17179413	1.08E-08	2.53E-09	2.45E-14	0.80655231	2.71E-11	-399.08463
2.53E-08	0.44014234	404.36153	587362.9	1941.6415	1.0022921	9.19E-11	0.021653546	7.16E-13	0.17179413	1.25E-08	2.94E-09	3.30E-14	0.80655231	3.66E-11	-398.8028
2.88E-08	0.44014234	404.36152	587362.9	1941.6415	1.0022921	1.05E-10	0.021653546	9.21E-13	0.17179413	1.42E-08	3.35E-09	4.28E-14	0.80655231	4.74E-11	-398.52123
3.58E-08	0.44014234	404.36152	587362.91	1941.6415	1.0022921	1.31E-10	0.021653546	1.41E-12	0.17179413	1.77E-08	4.16E-09	6.62E-14	0.80655231	7.32E-11	-397.95883
4.28E-08	0.44014234	404.36152	587362.91	1941.6415	1.0022921	1.58E-10	0.021653545	2.00E-12	0.17179412	2.11E-08	4.98E-09	9.47E-14	0.80655231	1.05E-10	-397.39743
4.98E-08	0.44014234	404.36151	587362.91	1941.6415	1.0022922	1.85E-10	0.021653545	2.70E-12	0.17179412	2.46E-08	5.79E-09	1.28E-13	0.80655231	1.42E-10	-396.83702
6.39E-08	0.44014233	404.36151	587362.91	1941.6414	1.0022922	2.40E-10	0.021653545	4.42E-12	0.17179411	3.14E-08	7.42E-09	2.11E-13	0.80655231	2.33E-10	-395.71921
7.79E-08	0.44014233	404.3615	587362.91	1941.6414	1.0022922	2.96E-10	0.021653544	6.58E-12	0.1717941	3.83E-08	9.05E-09	3.13E-13	0.80655231	3.46E-10	-394.60536
9.19E-08	0.44014232	404.36149	587362.92	1941.6414	1.0022922	3.53E-10	0.021653544	9.19E-12	0.17179409	4.51E-08	1.07E-08	4.36E-13	0.80655231	4.81E-10	-393.49548
1.06E-07	0.44014232	404.36149	587362.92	1941.6414	1.0022922	4.12E-10	0.021653543	1.23E-11	0.17179408	5.19E-08	1.23E-08	5.79E-13	0.80655231	6.38E-10	-392.38953
1.20E-07	0.44014231	404.36148	587362.92	1941.6413	1.0022922	4.71E-10	0.021653543	1.58E-11	0.17179408	5.87E-08	1.39E-08	7.42E-13	0.80655231	8.17E-10	-391.28752
1.34E-07	0.44014231	404.36147	587362.93	1941.6413	1.0022923	5.32E-10	0.021653542	1.98E-11	0.17179407	6.55E-08	1.56E-08	9.26E-13	0.80655231	1.02E-09	-390.18942
1.62E-07	0.4401423	404.36146	587362.93	1941.6413	1.0022923	6.58E-10	0.021653541	2.92E-11	0.17179405	7.89E-08	1.88E-08	1.35E-12	0.80655231	1.49E-09	-388.00492
1.90E-07	0.44014229	404.36145	587362.94	1941.6412	1.0022923	7.88E-10	0.02165354	4.07E-11	0.17179404	9.23E-08	2.21E-08	1.86E-12	0.80655231	2.04E-09	-385.8359
2.18E-07	0.44014228	404.36143	587362.94	1941.6412	1.0022924	9.22E-10	0.021653539	5.42E-11	0.17179402	1.06E-07	2.54E-08	2.45E-12	0.80655231	2.68E-09	-383.68228
2.46E-07	0.44014227	404.36142	587362.95	1941.6411	1.0022924	1.06E-09	0.021653538	6.98E-11	0.171794	1.19E-07	2.86E-08	3.12E-12	0.80655231	3.41E-09	-381.54392
3.02E-07	0.44014225	404.36139	587362.96	1941.641	1.0022925	1.35E-09	0.021653535	1.08E-10	0.17179397	1.45E-07	3.51E-08	4.69E-12	0.80655231	5.12E-09	-377.31261
3.58E-07	0.44014223	404.36137	587362.97	1941.6409	1.0022925	1.67E-09	0.021653533	1.55E-10	0.17179394	1.71E-07	4.17E-08	6.59E-12	0.80655231	7.17E-09	-373.14111
4.20E-07	0.44014221	404.36134	587362.98	1941.6408	1.0022926	2.03E-09	0.021653531	2.18E-10	0.1717939	1.99E-07	4.88E-08	9.05E-12	0.80655231	9.82E-09	-368.60834
4.82E-07	0.44014219	404.36131	587362.99	1941.6408	1.0022927	2.42E-09	0.021653528	2.94E-10	0.17179387	2.27E-07	5.60E-08	1.19E-11	0.80655231	1.29E-08	-364.14617
5.44E-07	0.44014217	404.36128	587363	1941.6407	1.0022927	2.82E-09	0.021653525	3.83E-10	0.17179383	2.55E-07	6.32E-08	1.51E-11	0.80655231	1.63E-08	-359.75351
6.06E-07	0.44014215	404.36126	587363.01	1941.6406	1.0022928	3.25E-09	0.021653523	4.86E-10	0.17179379	2.82E-07	7.04E-08	1.87E-11	0.80655231	2.02E-08	-355.42925
6.68E-07	0.44014213	404.36123	587363.03	1941.6405	1.0022929	3.70E-09	0.02165352	6.04E-10	0.17179376	3.09E-07	7.76E-08	2.27E-11	0.80655231	2.44E-08	-351.17232
7.30E-07	0.44014211	404.3612	587363.04	1941.6404	1.0022929	4.17E-09	0.021653517	7.36E-10	0.17179372	3.35E-07	8.48E-08	2.71E-11	0.80655231	2.90E-08	-346.98167
7.92E-07	0.44014209	404.36117	587363.05	1941.6403	1.002293	4.66E-09	0.021653514	8.83E-10	0.17179369	3.61E-07	9.20E-08	3.18E-11	0.80655231	3.40E-08	-342.85625
8.54E-07	0.44014207	404.36115	587363.06	1941.6402	1.0022931	5.17E-09	0.021653512	1.05E-09	0.17179365	3.87E-07	9.92E-08	3.70E-11	0.80655231	3.93E-08	-338.79503
9.16E-07	0.44014205	404.36112	587363.07	1941.6401	1.0022931	5.70E-09	0.021653509	1.23E-09	0.17179361	4.13E-07	1.06E-07	4.25E-11	0.80655231	4.50E-08	-334.79701
9.77E-07	0.44014204	404.3611	587363.08	1941.64	1.0022932	6.24E-09	0.021653506	1.43E-09	0.17179358	4.38E-07	1.14E-07	4.83E-11	0.80655231	5.11E-08	-330.86117
1.04E-06	0.44014202	404.36107	587363.09	1941.6399	1.0022932	6.81E-09	0.021653503	1.64E-09	0.17179354	4.63E-07	1.21E-07	5.46E-11	0.80655231	5.76E-08	-326.98655
1.10E-06	0.440142	404.36105	587363.1	1941.6398	1.0022933	7.40E-09	0.0216535	1.87E-09	0.1717935	4.87E-07	1.28E-07	6.12E-11	0.80655231	6.43E-08	-323.17216
1.16E-06	0.44014198	404.36102	587363.11	1941.6398	1.0022934	8.00E-09	0.021653497	2.13E-09	0.17179347	5.11E-07	1.35E-07	6.82E-11	0.80655231	7.15E-08	-319.41706
1.22E-06	0.44014197	404.361	587363.12	1941.6397	1.0022934	8.62E-09	0.021653494	2.40E-09	0.17179343	5.35E-07	1.42E-07	7.55E-11	0.80655231	7.90E-08	-315.72031
1.29E-06	0.44014195	404.36097	587363.13	1941.6396	1.0022935	9.26E-09	0.02165349	2.69E-09	0.1717934	5.59E-07	1.50E-07	8.33E-11	0.80655231	8.68E-08	-312.08098
1.41E-06	0.44014191	404.36093	587363.15	1941.6394	1.0022936	1.06E-08	0.021653484	3.33E-09	0.17179332	6.05E-07	1.64E-07	9.98E-11	0.80655231	1.03E-07	-304.97093
1.52E-06	0.44014188	404.36088	587363.16	1941.6393	1.0022937	1.18E-08	0.021653478	3.97E-09	0.17179326	6.46E-07	1.77E-07	1.16E-10	0.80655231	1.20E-07	-298.75926
1.63E-06	0.44014186	404.36084	587363.18	1941.6391	1.0022938	1.32E-08	0.021653472	4.69E-09	0.17179319	6.86E-07	1.90E-07	1.33E-10	0.80655231	1.37E-07	-292.71983
1.74E-06	0.44014183	404.3608	587363.2	1941.639	1.0022939	1.45E-08	0.021653466	5.48E-09	0.17179312	7.25E-07	2.03E-07	1.52E-10	0.80655231	1.55E-07	-286.84772
1.86E-06	0.4401418	404.36076	587363.21	1941.6389	1.002294	1.59E-08	0.02165346	6.34E-09	0.17179306	7.63E-07	2.16E-07	1.71E-10	0.80655231	1.74E-07	-281.13815
1.97E-06	0.44014177	404.36073	587363.23	1941.6387	1.0022941	1.74E-08	0.021653453	7.28E-09	0.17179299	8.01E-07	2.29E-07	1.92E-10	0.80655231	1.94E-07	-275.58644
2.08E-06	0.44014175	404.36069	587363.24	1941.6386	1.0022942	1.89E-08	0.021653447	8.29E-09	0.17179292	8.38E-07	2.42E-07	2.14E-10	0.80655231	2.15E-07	-270.18805
2.19E-06	0.44014172	404.36065	587363.26	1941.6385	1.0022943	2.05E-08	0.02165344	9.38E-09	0.17179286	8.73E-07	2.55E-07	2.37E-10	0.80655231	2.37E-07	-264.93857
2.30E-06	0.44014169	404.36062	587363.27	1941.6383	1.0022944	2.21E-08	0.021653434	1.06E-08	0.17179279	9.09E-07	2.68E-07	2.61E-10	0.80655231	2.60E-07	-259.83368
2.41E-06	0.44014167	404.36058	587363.29	1941.6382	1.0022945	2.37E-08	0.021653427	1.18E-08	0.17179272	9.43E-07	2.81E-07	2.86E-10	0.80655231	2.84E-07	-254.86921
2.52E-06	0.44014164	404.36054	587363.3	1941.6381	1.0022946	2.54E-08	0.02165342	1.31E-08	0.17179265	9.77E-07	2.94E-07	3.12E-10	0.80655231	3.09E-07	-250.04108
2.64E-06	0.44014162	404.36051	587363.32	1941.638	1.0022946	2.71E-08	0.021653413	1.46E-08	0.17179259	1.01E-06	3.07E-07	3.40E-10	0.80655231	3.34E-07	-245.34531
2.75E-06	0.44014159	404.36048	587363.33	1941.6379	1.0022947	2.89E-08	0.021653406	1.61E-08	0.17179252	1.04E-06	3.20E-07	3.68E-10	0.80655231	3.61E-07	-240.77806
2.86E-06	0.44014157	404.36044	587363.34	1941.6378	1.0022948	3.07E-08	0.021653399	1.77E-08	0.17179245	1.07E-06	3.33E-07	3.98E-10	0.80655231	3.88E-07	-236.33557
2.97E-06	0.44014155	404.36041	587363.36	1941.6376	1.0022949	3.26E-08	0.021653392	1.93E-08	0.17179238	1.11E-06	3.46E-07	4.28E-10	0.80655231	4.16E-07	-232.01419
3.08E-06	0.44014153	404.36038	587363.37	1941.6375	1.002295	3.45E-08	0.021653384	2.11E-08	0.17179231	1.14E-06	3.59E-07	4.60E-10	0.80655231	4.45E-07	-227.81035
3.19E-06	0.4401415	404.36035	587363.38	1941.6374	1.002295	3.64E-08	0.021653377	2.30E-08	0.17179224	1.17E-06	3.72E-07	4.93E-10	0.80655231	4.75E-07	-223.7206
3.30E-06	0.44014148	404.36032	587363.39	1941.6373	1.0022951	3.84E-08	0.02165337	2.49E-08	0.17179217	1.20E-06	3.85E-07	5.27E-10	0.80655231	5.05E-07	-219.74157
3.42E-06	0.44014146	404.36029	587363.41	1941.6372	1.0022952	4.04E-08	0.021653362	2.70E-08	0.1717921	1.22E-06	3.98E-07	5.62E-10	0.80655231	5.36E-07	-215.87
3.53E-06	0.44014144	404.36026	587363.42	1941.6371	1.0022953	4.25E-08	0.021653354	2.91E-08	0.17179203	1.25E-06	4.11E-07	5.97E-10	0.80655231	5.68E-07	-212.10269
3.64E-06	0.44014142	404.36023	587363.43	1941.637	1.0022953	4.45E-08	0.021653346	3.13E-08	0.17179196	1.28E-06	4.24E-07	6.34E-10	0.80655231	6.01E-07	-208.43654
3.75E-06	0.4401414	404.3602	587363.44	1941.6369	1.0022954	4.66E-08	0.021653339	3.36E-08	0.17179189	1.31E-06	4.37E-07	6.72E-10	0.80655231	6.34E-07	-204.86854
3.86E-06	0.44014138	404.36017	587363.45	1941.6368	1.0022955	4.88E-08	0.021653331	3.60E-08	0.17179182	1.34E-06	4.50E-07	7.11E-10	0.80655231	6.68E-07	-201.39576
3.97E-06	0.44014136	404.36015	587363.46	1941.6367	1.0022955	5.10E-08	0.021653323	3.85E-08	0.17179175	1.36E-06	4.63E-07	7.51E-10	0.80655231	7.03E-07	-198.01534
4.08E-06	0.44014134	404.36012	587363.47	1941.6366	1.0022956	5.32E-08	0.021653314	4.11E-08	0.17179168	1.39E-06	4.76E-07	7.92E-10	0.80655231	7.38E-07	-194.72451
4.31E-06	0.4401413	404.36007	587363.5	1941.6364	1.0022957	5.77E-08	0.021653298	4.66E-08	0.17179154	1.44E-06	5.03E-07	8.77E-10	0.80655231	8.11E-07	-188.4009
4.51E-06	0.44014127	404.36002	587363.52	1941.6363	1.0022959	6.18E-08	0.021653283	5.19E-08	0.17179141	1.48E-06	5.26E-07	9.57E-10	0.80655231	8.79E-07	-182.98973
4.71E-06	0.44014124	404.35997	587363.53	1941.6361	1.002296	6.61E-08	0.021653268	5.74E-08	0.17179128	1.53E-06	5.50E-07	1.04E-09	0.80655231	9.48E-07	-177.82901
4.91E-06	0.44014121	404.35993	587363.55	1941.636	1.0022961	7.04E-08	0.021653252	6.33E-08	0.17179114	1.57E-06	5.74E-07	1.13E-09	0.80655231	1.02E-06	-172.90513
5.11E-06	0.44014118	404.35989	587363.57	1941.6358	1.0022962	7.49E-08	0.021653236	6.95E-08	0.17179101	1.61E-06	5.97E-07	1.22E-09	0.80655231	1.09E-06	-168.20513
5.31E-06	0.44014115	404.35985	587363.58	1941.6357	1.0022963	7.94E-08	0.02165322	7.60E-08	0.17179088	1.65E-06	6.21E-07	1.31E-09	0.80655231	1.17E-06	-163.71669
5.51E-06	0.44014112	404.35981	587363.6	1941.6356	1.0022964	8.40E-08	0.021653204	8.28E-08	0.17179074	1.69E-06	6.45E-07	1.40E-09	0.80655231	1.25E-06	-159.4281
5.71E-06	0.4401411	404.35977	587363.62	1941.6354	1.0022965	8.87E-08	0.021653187	8.99E-08	0.17179061	1.73E-06	6.68E-07	1.50E-09	0.80655231	1.33E-06	-155.32823
5.91E-06	0.44014107	404.35973	587363.63	1941.6353	1.0022966	9.34E-08	0.021653171	9.73E-08	0.17179047	1.76E-06	6.92E-07	1.60E-09	0.80655231	1.41E-06	-151.4065
6.11E-06	0.44014104	404.35969	587363.65	1941.6352	1.0022967	9.82E-08	0.021653154	1.05E-07	0.17179033	1.80E-06	7.16E-07	1.71E-09	0.80655231	1.49E-06	-147.65284
6.31E-06	0.44014102	404.35966	587363.66	1941.635	1.0022968	1.03E-07	0.021653136	1.13E-07	0.17179019	1.84E-06	7.40E-07	1.81E-09	0.80655231	1.57E-06	-144.0577
6.51E-06	0.44014099	404.35962	587363.68	1941.6349	1.0022968	1.08E-07	0.021653119	1.21E-07	0.17179005	1.87E-06	7.64E-07	1.92E-09	0.80655231	1.66E-06	-140.61201
6.71E-06	0.44014097	404.35959	587363.69	1941.6348	1.0022969	1.13E-07	0.021653101	1.30E-07	0.17178991	1.91E-06	7.88E-07	2.04E-09	0.80655231	1.75E-06	-137.30713
6.91E-06	0.44014095	404.35955	587363.7	1941.6347	1.002297	1.18E-07	0.021653084	1.39E-07	0.17178976	1.94E-06	8.12E-07	2.15E-09	0.80655231	1.84E-06	-134.13487
7.11E-06	0.44014092	404.35952	587363.72	1941.6346	1.0022971	1.23E-07	0.021653065	1.48E-07	0.17178962	1.97E-06	8.36E-07	2.27E-09	0.80655231	1.93E-06	-131.08745
7.32E-06	0.4401409	404.35949	587363.73	1941.6345	1.0022972	1.29E-07	0.021653047	1.58E-07	0.17178947	2.01E-06	8.60E-07	2.39E-09	0.80655231	2.02E-06	-128.15747
7.52E-06	0.44014088	404.35946	587363.74	1941.6343	1.0022973	1.34E-07	0.021653029	1.67E-07	0.17178933	2.04E-06	8.84E-07	2.51E-09	0.80655231	2.11E-06	-125.33791
7.72E-06	0.44014086	404.35942	587363.76	1941.6342	1.0022973	1.39E-07	0.02165301	1.78E-07	0.17178918	2.07E-06	9.08E-07	2.64E-09	0.80655231	2.21E-06	-122.62212
7.92E-06	0.44014084	404.35939	587363.77	1941.6341	1.0022974	1.45E-07	0.021652991	1.88E-07	0.17178903	2.10E-06	9.32E-07	2.77E-09	0.80655231	2.30E-06	-120.00375
8.12E-06	0.44014082	404.35936	587363.78	1941.634	1.0022975	1.50E-07	0.021652972	1.99E-07	0.17178888	2.13E-06	9.56E-07	2.90E-09	0.80655231	2.40E-06	-117.4768
8.32E-06	0.4401408	404.35934	587363.79	1941.6339	1.0022976	1.56E-07	0.021652953	2.10E-07	0.17178873	2.16E-06	9.80E-07	3.03E-09	0.80655231	2.50E-06	-115.03558
8.52E-06	0.44014078	404.35931	587363.8	1941.6338	1.0022976	1.62E-07	0.021652933	2.21E-07	0.17178857	2.19E-06	1.00E-06	3.17E-09	0.80655231	2.60E-06	-112.67466
8.72E-06	0.44014076	404.35928	587363.81	1941.6338	1.0022977	1.67E-07	0.021652914	2.32E-07	0.17178842	2.22E-06	1.03E-06	3.31E-09	0.80655231	2.71E-06	-110.38892
8.92E-06	0.44014074	404.35925	587363.83	1941.6337	1.0022978	1.73E-07	0.021652894	2.44E-07	0.17178826	2.25E-06	1.05E-06	3.45E-09	0.80655231	2.81E-06	-108.17348
9.12E-06	0.44014072	404.35923	587363.84	1941.6336	1.0022978	1.79E-07	0.021652874	2.56E-07	0.1717881	2.28E-06	1.08E-06	3.60E-09	0.80655231	2.91E-06	-106.02371
9.32E-06	0.44014071	404.3592	587363.85	1941.6335	1.0022979	1.85E-07	0.021652853	2.69E-07	0.17178795	2.31E-06	1.10E-06	3.74E-09	0.80655231	3.02E-06	-103.93523
9.52E-06	0.44014069	404.35917	587363.86	1941.6334	1.002298	1.91E-07	0.021652833	2.81E-07	0.17178779	2.34E-06	1.13E-06	3.89E-09	0.80655231	3.13E-06	-101.90387
9.72E-06	0.44014067	404.35915	587363.87	1941.6333	1.002298	1.97E-07	0.021652812	2.94E-07	0.17178762	2.37E-06	1.15E-06	4.04E-09	0.80655231	3.24E-06	-99.9257
9.92E-06	0.44014066	404.35912	587363.88	1941.6332	1.0022981	2.03E-07	0.021652791	3.07E-07	0.17178746	2.40E-06	1.18E-06	4.20E-09	0.80655231	3.35E-06	-97.996963
1.03E-05	0.44014062	404.35908	587363.9	1941.6331	1.0022982	2.15E-07	0.021652749	3.34E-07	0.17178713	2.46E-06	1.22E-06	4.51E-09	0.80655231	3.57E-06	-94.273783
1.07E-05	0.4401406	404.35904	587363.91	1941.6329	1.0022983	2.26E-07	0.02165271	3.60E-07	0.17178683	2.51E-06	1.27E-06	4.80E-09	0.80655231	3.78E-06	-91.058256
1.10E-05	0.44014057	404.359	587363.93	1941.6328	1.0022984	2.37E-07	0.02165267	3.86E-07	0.17178652	2.57E-06	1.31E-06	5.10E-09	0.80655231	3.99E-06	-87.95296
1.14E-05	0.44014054	404.35896	587363.95	1941.6327	1.0022985	2.49E-07	0.02165263	4.13E-07	0.17178621	2.62E-06	1.36E-06	5.41E-09	0.80655231	4.21E-06	-84.942186
1.18E-05	0.44014052	404.35892	587363.96	1941.6325	1.0022986	2.61E-07	0.021652589	4.41E-07	0.17178589	2.67E-06	1.40E-06	5.72E-09	0.80655231	4.43E-06	-82.011669
1.21E-05	0.4401405	404.35888	587363.98	1941.6324	1.0022987	2.73E-07	0.021652547	4.70E-07	0.17178557	2.72E-06	1.45E-06	6.04E-09	0.80655231	4.66E-06	-79.148456
1.25E-05	0.44014047	404.35885	587363.99	1941.6323	1.0022988	2.85E-07	0.021652505	4.99E-07	0.17178524	2.78E-06	1.49E-06	6.36E-09	0.80655231	4.89E-06	-76.340787
1.29E-05	0.44014045	404.35881	587364	1941.6322	1.0022988	2.97E-07	0.021652462	5.29E-07	0.17178491	2.83E-06	1.54E-06	6.70E-09	0.80655231	5.12E-06	-73.577982
1.32E-05	0.44014043	404.35878	587364.02	1941.6321	1.0022989	3.10E-07	0.021652418	5.60E-07	0.17178457	2.88E-06	1.58E-06	7.04E-09	0.80655231	5.36E-06	-70.850349
1.36E-05	0.44014041	404.35875	587364.03	1941.632	1.002299	3.23E-07	0.021652373	5.92E-07	0.17178423	2.94E-06	1.63E-06	7.38E-09	0.80655231	5.60E-06	-68.149083
1.39E-05	0.44014039	404.35872	587364.04	1941.6319	1.0022991	3.36E-07	0.021652328	6.25E-07	0.17178388	2.99E-06	1.67E-06	7.74E-09	0.80655231	5.85E-06	-65.466192
1.43E-05	0.44014037	404.35869	587364.05	1941.6318	1.0022991	3.49E-07	0.021652282	6.58E-07	0.17178353	3.05E-06	1.72E-06	8.10E-09	0.80655231	6.10E-06	-62.794416
1.47E-05	0.44014036	404.35867	587364.06	1941.6317	1.0022992	3.62E-07	0.021652235	6.92E-07	0.17178317	3.10E-06	1.77E-06	8.46E-09	0.80655231	6.36E-06	-60.127156
1.50E-05	0.44014034	404.35864	587364.07	1941.6316	1.0022993	3.76E-07	0.021652188	7.27E-07	0.1717828	3.16E-06	1.81E-06	8.83E-09	0.80655231	6.62E-06	-57.458415
1.54E-05	0.44014033	404.35861	587364.08	1941.6315	1.0022993	3.89E-07	0.021652139	7.63E-07	0.17178243	3.22E-06	1.86E-06	9.21E-09	0.80655231	6.88E-06	-54.782739
1.57E-05	0.44014031	404.35859	587364.09	1941.6315	1.0022994	4.03E-07	0.02165209	8.00E-07	0.17178206	3.28E-06	1.91E-06	9.60E-09	0.80655231	7.15E-06	-52.095161
1.61E-05	0.4401403	404.35857	587364.1	1941.6314	1.0022995	4.18E-07	0.02165204	8.37E-07	0.17178167	3.33E-06	1.95E-06	9.99E-09	0.80655231	7.43E-06	-49.391158
1.65E-05	0.44014028	404.35855	587364.11	1941.6313	1.0022995	4.32E-07	0.021651989	8.75E-07	0.17178128	3.39E-06	2.00E-06	1.04E-08	0.80655231	7.71E-06	-46.666603
1.68E-05	0.44014027	404.35853	587364.12	1941.6313	1.0022996	4.47E-07	0.021651938	9.14E-07	0.17178089	3.45E-06	2.05E-06	1.08E-08	0.80655231	8.00E-06	-43.917727
1.72E-05	0.44014026	404.35851	587364.13	1941.6312	1.0022996	4.62E-07	0.021651885	9.54E-07	0.17178049	3.51E-06	2.09E-06	1.12E-08	0.80655231	8.29E-06	-41.141085
1.75E-05	0.44014025	404.35849	587364.14	1941.6312	1.0022997	4.77E-07	0.021651832	9.94E-07	0.17178008	3.58E-06	2.14E-06	1.16E-08	0.80655231	8.58E-06	-38.333519
1.79E-05	0.44014024	404.35847	587364.14	1941.6311	1.0022997	4.92E-07	0.021651778	1.04E-06	0.17177967	3.64E-06	2.19E-06	1.20E-08	0.80655231	8.88E-06	-35.492129
1.83E-05	0.44014023	404.35846	587364.15	1941.6311	1.0022997	5.08E-07	0.021651723	1.08E-06	0.17177924	3.70E-06	2.24E-06	1.24E-08	0.80655231	9.19E-06	-32.61425
1.86E-05	0.44014023	404.35844	587364.15	1941.631	1.0022998	5.23E-07	0.021651667	1.12E-06	0.17177882	3.77E-06	2.28E-06	1.29E-08	0.80655231	9.50E-06	-29.69742
1.90E-05	0.44014022	404.35843	587364.16	1941.631	1.0022998	5.40E-07	0.02165161	1.16E-06	0.17177838	3.83E-06	2.33E-06	1.33E-08	0.80655231	9.82E-06	-26.739364
1.93E-05	0.44014022	404.35842	587364.16	1941.631	1.0022998	5.56E-07	0.021651552	1.21E-06	0.17177794	3.90E-06	2.38E-06	1.37E-08	0.80655231	1.01E-05	-23.737971
1.97E-05	0.44014021	404.35841	587364.17	1941.631	1.0022999	5.72E-07	0.021651493	1.25E-06	0.17177749	3.97E-06	2.43E-06	1.42E-08	0.80655231	1.05E-05	-20.691275
2.01E-05	0.44014021	404.3584	587364.17	1941.6309	1.0022999	5.89E-07	0.021651433	1.30E-06	0.17177704	4.04E-06	2.48E-06	1.46E-08	0.80655231	1.08E-05	-17.597439
2.08E-05	0.44014021	404.35839	587364.18	1941.6309	1.0022999	6.24E-07	0.02165131	1.39E-06	0.17177611	4.18E-06	2.58E-06	1.56E-08	0.80655231	1.15E-05	-11.26156
2.14E-05	0.44014021	404.35838	587364.18	1941.6309	1.0022999	6.56E-07	0.021651197	1.48E-06	0.17177524	4.31E-06	2.67E-06	1.64E-08	0.80655231	1.21E-05	-5.3817593
2.21E-05	0.44014021	404.35838	587364.18	1941.6309	1.0022999	6.89E-07	0.021651079	1.57E-06	0.17177435	4.44E-06	2.76E-06	1.73E-08	0.80655231	1.28E-05	0.67490645
2.27E-05	0.44014022	404.35838	587364.18	1941.631	1.0022999	7.23E-07	0.021650959	1.67E-06	0.17177344	4.58E-06	2.85E-06	1.81E-08	0.80655231	1.35E-05	6.916188
2.34E-05	0.44014023	404.35839	587364.18	1941.631	1.0022999	7.57E-07	0.021650834	1.76E-06	0.1717725	4.73E-06	2.94E-06	1.90E-08	0.80655231	1.42E-05	13.349359
2.40E-05	0.44014025	404.3584	587364.17	1941.6311	1.0022999	7.93E-07	0.021650706	1.86E-06	0.17177153	4.87E-06	3.03E-06	1.99E-08	0.80655231	1.49E-05	19.981359
2.47E-05	0.44014027	404.35842	587364.16	1941.6312	1.0022998	8.30E-07	0.021650574	1.96E-06	0.17177053	5.02E-06	3.12E-06	2.08E-08	0.80655231	1.56E-05	26.818901
2.53E-05	0.4401403	404.35845	587364.15	1941.6313	1.0022998	8.68E-07	0.021650439	2.07E-06	0.17176951	5.18E-06	3.22E-06	2.18E-08	0.80655231	1.64E-05	33.868555
2.60E-05	0.44014032	404.35848	587364.14	1941.6315	1.0022997	9.07E-07	0.021650299	2.18E-06	0.17176846	5.34E-06	3.31E-06	2.27E-08	0.80655231	1.72E-05	41.136826
2.66E-05	0.44014036	404.35851	587364.13	1941.6316	1.0022996	9.47E-07	0.021650155	2.29E-06	0.17176737	5.51E-06	3.41E-06	2.37E-08	0.80655231	1.80E-05	48.630211
2.73E-05	0.4401404	404.35856	587364.11	1941.6318	1.0022995	9.89E-07	0.021650006	2.40E-06	0.17176626	5.67E-06	3.50E-06	2.47E-08	0.80655231	1.88E-05	56.355251
2.79E-05	0.44014044	404.3586	587364.09	1941.632	1.0022994	1.03E-06	0.021649854	2.52E-06	0.17176511	5.85E-06	3.60E-06	2.57E-08	0.80655231	1.97E-05	64.318576
2.86E-05	0.44014049	404.35866	587364.07	1941.6322	1.0022992	1.07E-06	0.021649696	2.64E-06	0.17176393	6.03E-06	3.70E-06	2.67E-08	0.80655231	2.06E-05	72.526938
2.92E-05	0.44014054	404.35872	587364.04	1941.6325	1.0022991	1.12E-06	0.021649534	2.77E-06	0.17176272	6.21E-06	3.80E-06	2.77E-08	0.80655231	2.15E-05	80.987239
2.99E-05	0.4401406	404.35879	587364.01	1941.6328	1.0022989	1.17E-06	0.021649368	2.90E-06	0.17176147	6.41E-06	3.90E-06	2.87E-08	0.80655231	2.25E-05	89.706558
3.05E-05	0.44014066	404.35887	587363.98	1941.6331	1.0022987	1.21E-06	0.021649196	3.03E-06	0.17176018	6.60E-06	4.00E-06	2.98E-08	0.80655231	2.34E-05	98.69217
3.12E-05	0.44014073	404.35895	587363.95	1941.6334	1.0022985	1.26E-06	0.021649019	3.17E-06	0.17175886	6.80E-06	4.11E-06	3.08E-08	0.80655231	2.44E-05	107.95157
3.18E-05	0.4401408	404.35904	587363.91	1941.6338	1.0022983	1.31E-06	0.021648837	3.31E-06	0.1717575	7.01E-06	4.21E-06	3.19E-08	0.80655231	2.55E-05	117.49247
3.25E-05	0.44014088	404.35914	587363.87	1941.6342	1.002298	1.37E-06	0.021648649	3.46E-06	0.1717561	7.23E-06	4.32E-06	3.30E-08	0.80655231	2.65E-05	127.32283
3.31E-05	0.44014097	404.35924	587363.83	1941.6346	1.0022978	1.42E-06	0.021648456	3.61E-06	0.17175467	7.45E-06	4.42E-06	3.41E-08	0.80655231	2.76E-05	137.45089
3.38E-05	0.44014106	404.35936	587363.78	1941.6351	1.0022975	1.47E-06	0.021648257	3.76E-06	0.17175319	7.67E-06	4.53E-06	3.53E-08	0.80655231	2.88E-05	147.88512
3.44E-05	0.44014116	404.35948	587363.73	1941.6355	1.0022972	1.53E-06	0.021648053	3.92E-06	0.17175166	7.91E-06	4.64E-06	3.64E-08	0.80655231	2.99E-05	158.63427
3.57E-05	0.44014138	404.35976	587363.62	1941.6366	1.0022965	1.65E-06	0.021647625	4.25E-06	0.17174848	8.39E-06	4.86E-06	3.87E-08	0.80655231	3.24E-05	181.11387
3.69E-05	0.4401416	404.36003	587363.51	1941.6377	1.0022958	1.76E-06	0.021647218	4.56E-06	0.17174546	8.86E-06	5.06E-06	4.09E-08	0.80655231	3.47E-05	202.51643
3.81E-05	0.44014184	404.36034	587363.38	1941.6389	1.0022951	1.88E-06	0.021646789	4.89E-06	0.17174228	9.34E-06	5.27E-06	4.31E-08	0.80655231	3.72E-05	225.0892
3.92E-05	0.44014211	404.36069	587363.24	1941.6402	1.0022942	2.00E-06	0.021646337	5.24E-06	0.17173894	9.86E-06	5.49E-06	4.53E-08	0.80655231	3.98E-05	248.89443
4.04E-05	0.44014241	404.36107	587363.09	1941.6417	1.0022933	2.14E-06	0.02164586	5.61E-06	0.17173542	1.04E-05	5.71E-06	4.76E-08	0.80655231	4.25E-05	273.99796
4.16E-05	0.44014273	404.36148	587362.92	1941.6433	1.0022922	2.27E-06	0.021645358	6.00E-06	0.17173171	1.10E-05	5.93E-06	5.00E-08	0.80655231	4.54E-05	300.46944
4.28E-05	0.44014308	404.36194	587362.74	1941.645	1.0022911	2.42E-06	0.021644829	6.40E-06	0.17172781	1.16E-05	6.16E-06	5.24E-08	0.80655231	4.84E-05	328.38248
4.39E-05	0.44014347	404.36244	587362.53	1941.6469	1.0022899	2.57E-06	0.021644271	6.83E-06	0.1717237	1.22E-05	6.40E-06	5.49E-08	0.80655231	5.17E-05	357.81487
4.51E-05	0.44014389	404.36298	587362.32	1941.649	1.0022885	2.73E-06	0.021643684	7.28E-06	0.17171937	1.29E-05	6.65E-06	5.74E-08	0.80655231	5.50E-05	388.84877
4.63E-05	0.44014434	404.36357	587362.08	1941.6512	1.0022871	2.90E-06	0.021643065	7.76E-06	0.17171482	1.36E-05	6.90E-06	6.01E-08	0.80655231	5.86E-05	421.571
4.74E-05	0.44014483	404.3642	587361.82	1941.6536	1.0022855	3.08E-06	0.021642413	8.26E-06	0.17171003	1.43E-05	7.16E-06	6.27E-08	0.80655231	6.24E-05	456.07322
4.86E-05	0.44014536	404.36489	587361.54	1941.6562	1.0022838	3.27E-06	0.021641725	8.79E-06	0.17170499	1.51E-05	7.42E-06	6.55E-08	0.80655231	6.63E-05	492.45225
4.98E-05	0.44014592	404.36563	587361.24	1941.659	1.0022819	3.47E-06	0.021641001	9.34E-06	0.17169968	1.59E-05	7.69E-06	6.83E-08	0.80655231	7.05E-05	530.81033
5.09E-05	0.44014654	404.36643	587360.92	1941.6621	1.00228	3.68E-06	0.021640239	9.93E-06	0.17169408	1.68E-05	7.98E-06	7.12E-08	0.80655231	7.49E-05	571.25539
5.21E-05	0.44014719	404.36729	587360.57	1941.6653	1.0022778	3.90E-06	0.021639435	1.05E-05	0.1716882	1.77E-05	8.27E-06	7.42E-08	0.80655231	7.96E-05	613.90147
5.33E-05	0.4401479	404.36821	587360.19	1941.6688	1.0022755	4.13E-06	0.021638589	1.12E-05	0.171682	1.86E-05	8.57E-06	7.72E-08	0.80655231	8.45E-05	658.86895
5.44E-05	0.44014865	404.3692	587359.79	1941.6725	1.0022731	4.38E-06	0.021637697	1.19E-05	0.17167548	1.96E-05	8.88E-06	8.04E-08	0.80655231	8.97E-05	706.28499
5.56E-05	0.44014946	404.37026	587359.36	1941.6765	1.0022705	4.63E-06	0.021636757	1.26E-05	0.17166861	2.07E-05	9.20E-06	8.36E-08	0.80655231	9.51E-05	756.28389
5.68E-05	0.44015032	404.3714	587358.9	1941.6808	1.0022677	4.90E-06	0.021635768	1.34E-05	0.17166138	2.18E-05	9.53E-06	8.69E-08	0.80655231	0.000100855	809.00752
5.80E-05	0.44015124	404.37261	587358.41	1941.6854	1.0022646	5.19E-06	0.021634726	1.42E-05	0.17165377	2.30E-05	9.87E-06	9.03E-08	0.80655231	0.000106905	864.60574
5.91E-05	0.44015223	404.37391	587357.89	1941.6902	1.0022614	5.49E-06	0.021633627	1.50E-05	0.17164576	2.42E-05	1.02E-05	9.39E-08	0.80655231	0.00011328	923.23688
6.03E-05	0.44015328	404.37529	587357.33	1941.6954	1.002258	5.81E-06	0.021632471	1.59E-05	0.17163732	2.55E-05	1.06E-05	9.75E-08	0.80655231	0.000119999	985.06824
6.15E-05	0.44015439	404.37677	587356.73	1941.701	1.0022543	6.14E-06	0.021631253	1.68E-05	0.17162844	2.69E-05	1.10E-05	1.01E-07	0.80655231	0.000127078	1050.2766
6.26E-05	0.44015559	404.37834	587356.09	1941.7069	1.0022504	6.49E-06	0.02162997	1.78E-05	0.17161909	2.84E-05	1.14E-05	1.05E-07	0.80655231	0.000134538	1119.0489
6.38E-05	0.44015685	404.38002	587355.41	1941.7132	1.0022463	6.86E-06	0.021628618	1.88E-05	0.17160924	2.99E-05	1.18E-05	1.09E-07	0.80655231	0.000142398	1191.5824
6.50E-05	0.4401582	404.3818	587354.69	1941.7199	1.0022419	7.25E-06	0.021627195	1.99E-05	0.17159888	3.15E-05	1.22E-05	1.13E-07	0.80655231	0.00015068	1268.0862
6.60E-05	0.44015949	404.3835	587354	1941.7263	1.0022377	7.61E-06	0.021625849	2.09E-05	0.17158908	3.30E-05	1.26E-05	1.17E-07	0.80655231	0.000158513	1340.5162
6.71E-05	0.44016085	404.3853	587353.27	1941.733	1.0022332	8.00E-06	0.021624439	2.20E-05	0.17157883	3.46E-05	1.30E-05	1.21E-07	0.80655231	0.000166722	1416.5103
6.81E-05	0.44016229	404.3872	587352.5	1941.7401	1.0022285	8.40E-06	0.021622961	2.31E-05	0.17156808	3.62E-05	1.34E-05	1.25E-07	0.80655231	0.000175325	1496.247
6.92E-05	0.4401638	404.38921	587351.68	1941.7476	1.0022235	8.82E-06	0.021621414	2.43E-05	0.17155683	3.80E-05	1.38E-05	1.29E-07	0.80655231	0.000184342	1579.9139
7.02E-05	0.4401654	404.39133	587350.83	1941.7556	1.0022183	9.27E-06	0.021619792	2.56E-05	0.17154504	3.98E-05	1.43E-05	1.34E-07	0.80655231	0.000193791	1667.7084
7.13E-05	0.44016709	404.39357	587349.92	1941.7639	1.0022127	9.73E-06	0.021618093	2.69E-05	0.17153269	4.17E-05	1.48E-05	1.38E-07	0.80655231	0.000203694	1759.8382
7.23E-05	0.44016887	404.39593	587348.96	1941.7728	1.0022069	1.02E-05	0.021616313	2.82E-05	0.17151976	4.37E-05	1.52E-05	1.43E-07	0.80655231	0.000214071	1856.5219
7.34E-05	0.44017075	404.39842	587347.95	1941.7821	1.0022007	1.07E-05	0.021614448	2.96E-05	0.17150622	4.58E-05	1.57E-05	1.48E-07	0.80655231	0.000224946	1957.9893
7.44E-05	0.44017273	404.40104	587346.89	1941.7919	1.0021942	1.13E-05	0.021612494	3.11E-05	0.17149203	4.80E-05	1.63E-05	1.53E-07	0.80655231	0.000236342	2064.4824
7.54E-05	0.4401746	404.40353	587345.88	1941.8012	1.002188	1.18E-05	0.021610656	3.25E-05	0.1714787	5.01E-05	1.67E-05	1.57E-07	0.80655231	0.000247064	2164.8333
7.63E-05	0.44017656	404.40613	587344.83	1941.8109	1.0021816	1.23E-05	0.02160874	3.40E-05	0.17146479	5.23E-05	1.72E-05	1.62E-07	0.80655231	0.000258247	2269.656
7.73E-05	0.44017862	404.40886	587343.72	1941.8211	1.0021748	1.28E-05	0.021606741	3.55E-05	0.17145029	5.45E-05	1.77E-05	1.67E-07	0.80655231	0.00026991	2379.1546
7.82E-05	0.44018077	404.41172	587342.56	1941.8318	1.0021677	1.34E-05	0.021604658	3.71E-05	0.17143518	5.68E-05	1.83E-05	1.72E-07	0.80655231	0.000282073	2493.5429
7.92E-05	0.44018303	404.41472	587341.34	1941.843	1.0021603	1.40E-05	0.021602485	3.88E-05	0.17141942	5.93E-05	1.88E-05	1.77E-07	0.80655231	0.000294759	2613.0448
8.01E-05	0.4401854	404.41787	587340.07	1941.8548	1.0021525	1.46E-05	0.02160022	4.05E-05	0.171403	6.18E-05	1.94E-05	1.82E-07	0.80655231	0.000307989	2737.895
8.11E-05	0.44018788	404.42116	587338.74	1941.8671	1.0021443	1.52E-05	0.021597858	4.23E-05	0.17138588	6.45E-05	1.99E-05	1.88E-07	0.80655231	0.000321786	2868.3391
8.20E-05	0.44019047	404.42461	587337.34	1941.88	1.0021358	1.59E-05	0.021595395	4.42E-05	0.17136803	6.73E-05	2.05E-05	1.93E-07	0.80655231	0.000336174	3004.6347
8.30E-05	0.44019319	404.42822	587335.87	1941.8934	1.0021268	1.66E-05	0.021592827	4.61E-05	0.17134942	7.02E-05	2.12E-05	1.99E-07	0.80655231	0.000351179	3147.0517
8.39E-05	0.44019603	404.43201	587334.34	1941.9076	1.0021175	1.73E-05	0.021590149	4.82E-05	0.17133002	7.32E-05	2.18E-05	2.05E-07	0.80655231	0.000366826	3295.8726
8.49E-05	0.44019901	404.43597	587332.73	1941.9224	1.0021076	1.81E-05	0.021587358	5.03E-05	0.1713098	7.63E-05	2.25E-05	2.12E-07	0.80655231	0.000383143	3451.3938
8.58E-05	0.44020213	404.44012	587331.05	1941.9378	1.0020974	1.89E-05	0.021584447	5.25E-05	0.17128873	7.96E-05	2.31E-05	2.18E-07	0.80655231	0.000400159	3613.9259
8.68E-05	0.4402054	404.44447	587329.29	1941.954	1.0020866	1.97E-05	0.021581412	5.48E-05	0.17126676	8.30E-05	2.38E-05	2.25E-07	0.80655231	0.000417902	3783.7942
8.77E-05	0.44020882	404.44902	587327.45	1941.971	1.0020753	2.06E-05	0.021578249	5.73E-05	0.17124386	8.66E-05	2.46E-05	2.32E-07	0.80655231	0.000436404	3961.3398
8.87E-05	0.44021239	404.45378	587325.52	1941.9888	1.0020635	2.15E-05	0.02157495	5.98E-05	0.17121998	9.03E-05	2.53E-05	2.39E-07	0.80655231	0.000455696	4146.9203
8.95E-05	0.44021576	404.45825	587323.7	1942.0055	1.0020524	2.23E-05	0.021571862	6.21E-05	0.17119764	9.38E-05	2.60E-05	2.45E-07	0.80655231	0.000473763	4321.1218
9.04E-05	0.44021926	404.46292	587321.81	1942.0229	1.0020409	2.32E-05	0.021568655	6.46E-05	0.17117444	9.74E-05	2.67E-05	2.52E-07	0.80655231	0.000492523	4502.4204
9.12E-05	0.44022291	404.46778	587319.84	1942.041	1.0020288	2.41E-05	0.021565327	6.71E-05	0.17115036	0.000101119	2.74E-05	2.59E-07	0.80655231	0.000512001	4691.1141
9.21E-05	0.44022671	404.47284	587317.79	1942.0598	1.0020163	2.50E-05	0.021561871	6.97E-05	0.17112536	0.000105011	2.82E-05	2.66E-07	0.80655231	0.000532227	4887.5139
9.29E-05	0.44023067	404.47812	587315.65	1942.0795	1.0020032	2.60E-05	0.021558283	7.25E-05	0.17109942	0.000109051	2.90E-05	2.74E-07	0.80655231	0.000553226	5091.9441
9.38E-05	0.44023479	404.48362	587313.42	1942.1	1.0019896	2.70E-05	0.021554559	7.53E-05	0.17107249	0.000113245	2.98E-05	2.81E-07	0.80655231	0.00057503	5304.743
9.46E-05	0.44023909	404.48934	587311.1	1942.1213	1.0019754	2.81E-05	0.021550692	7.83E-05	0.17104454	0.0001176	3.06E-05	2.89E-07	0.80655231	0.000597669	5526.2636
9.55E-05	0.44024356	404.49531	587308.68	1942.1435	1.0019606	2.91E-05	0.021546678	8.13E-05	0.17101553	0.000122122	3.14E-05	2.97E-07	0.80655231	0.000621173	5756.8742
9.63E-05	0.44024822	404.50152	587306.16	1942.1666	1.0019452	3.03E-05	0.021542512	8.45E-05	0.17098541	0.000126816	3.23E-05	3.06E-07	0.80655231	0.000645577	5996.9589
9.72E-05	0.44025308	404.508	587303.54	1942.1907	1.0019292	3.14E-05	0.021538186	8.78E-05	0.17095416	0.000131689	3.32E-05	3.14E-07	0.80655231	0.000670913	6246.9184
9.80E-05	0.44025813	404.51474	587300.81	1942.2158	1.0019125	3.27E-05	0.021533696	9.12E-05	0.17092172	0.000136749	3.41E-05	3.23E-07	0.80655231	0.000697217	6507.1705
9.89E-05	0.4402634	404.52176	587297.96	1942.242	1.0018951	3.39E-05	0.021529036	9.48E-05	0.17088805	0.000142002	3.50E-05	3.32E-07	0.80655231	0.000724525	6778.151
9.97E-05	0.44026888	404.52908	587295	1942.2692	1.001877	3.52E-05	0.021524198	9.85E-05	0.17085311	0.000147455	3.60E-05	3.42E-07	0.80655231	0.000752876	7060.3145
0.000100593	0.44027459	404.5367	587291.91	1942.2976	1.0018581	3.66E-05	0.021519176	0.000102288	0.17081685	0.000153116	3.70E-05	3.51E-07	0.80655231	0.000782308	7354.1347
0.000101446	0.44028054	404.54464	587288.69	1942.3271	1.0018384	3.80E-05	0.021513964	0.000106263	0.17077922	0.000158993	3.80E-05	3.61E-07	0.80655231	0.000812862	7660.1056
0.000102298	0.44028673	404.55291	587285.34	1942.3578	1.001818	3.95E-05	0.021508554	0.000110388	0.17074016	0.000165094	3.91E-05	3.72E-07	0.80655231	0.000844581	7978.7423
0.000103151	0.44029318	404.56152	587281.85	1942.3899	1.0017966	4.10E-05	0.021502938	0.000114671	0.17069963	0.000171428	4.01E-05	3.82E-07	0.80655231	0.000877508	8310.5814
0.000104004	0.4402999	404.57049	587278.21	1942.4232	1.0017744	4.26E-05	0.02149711	0.000119116	0.17065757	0.000178002	4.12E-05	3.93E-07	0.80655231	0.000911688	8656.1821
0.000104856	0.4403069	404.57984	587274.43	1942.458	1.0017513	4.42E-05	0.021491061	0.00012373	0.17061393	0.000184828	4.23E-05	4.04E-07	0.80655231	0.000947169	9016.1272
0.000105709	0.44031418	404.58957	587270.48	1942.4941	1.0017272	4.59E-05	0.021484783	0.00012852	0.17056863	0.000191912	4.35E-05	4.16E-07	0.80655231	0.000983999	9391.0235
0.000106561	0.44032177	404.59971	587266.37	1942.5318	1.0017021	4.77E-05	0.021478267	0.00013349	0.17052164	0.000199267	4.47E-05	4.28E-07	0.80655231	0.001022228	9781.5031
0.000107414	0.44032967	404.61027	587262.09	1942.571	1.0016759	4.95E-05	0.021471505	0.000138649	0.17047287	0.0002069	4.59E-05	4.40E-07	0.80655231	0.001061909	10188.224
0.000108267	0.4403379	404.62127	587257.64	1942.6119	1.0016487	5.14E-05	0.021464488	0.000144004	0.17042227	0.000214824	4.71E-05	4.52E-07	0.80655231	0.001103096	10611.87
0.000109119	0.44034647	404.63272	587252.99	1942.6544	1.0016204	5.34E-05	0.021457205	0.000149561	0.17036977	0.000223049	4.84E-05	4.65E-07	0.80655231	0.001145845	11053.156
0.000109972	0.44035539	404.64465	587248.16	1942.6987	1.0015908	5.54E-05	0.021449648	0.000155329	0.1703153	0.000231586	4.97E-05	4.79E-07	0.80655231	0.001190214	11512.82
0.000110824	0.44036469	404.65708	587243.12	1942.7449	1.0015601	5.76E-05	0.021441806	0.000161315	0.17025878	0.000240447	5.10E-05	4.93E-07	0.80655231	0.001236264	11991.635
0.000111677	0.44037436	404.67003	587237.87	1942.7929	1.001528	5.98E-05	0.021433669	0.000167526	0.17020015	0.000249643	5.24E-05	5.07E-07	0.80655231	0.001284055	12490.401
0.000112529	0.44038444	404.68351	587232.41	1942.843	1.0014947	6.21E-05	0.021425225	0.000173973	0.17013932	0.000259188	5.38E-05	5.21E-07	0.80655231	0.001333654	13009.951
0.000113382	0.44039494	404.69756	587226.71	1942.8951	1.0014599	6.44E-05	0.021416464	0.000180663	0.17007621	0.000269094	5.52E-05	5.36E-07	0.80655231	0.001385126	13551.147
0.000114235	0.44040587	404.71219	587220.79	1942.9494	1.0014237	6.69E-05	0.021407374	0.000187605	0.17001075	0.000279374	5.66E-05	5.51E-07	0.80655231	0.001438541	14114.888
0.000115087	0.44041726	404.72742	587214.61	1943.0059	1.001386	6.94E-05	0.021397943	0.000194808	0.16994284	0.000290044	5.81E-05	5.67E-07	0.80655231	0.001493971	14702.103
0.00011594	0.44042911	404.7433	587208.18	1943.0647	1.0013467	7.21E-05	0.021388158	0.000202283	0.16987239	0.000301116	5.96E-05	5.83E-07	0.80655231	0.001551489	15313.759
0.000116792	0.44044146	404.75983	587201.48	1943.126	1.0013058	7.48E-05	0.021378007	0.000210039	0.16979933	0.000312605	6.11E-05	6.00E-07	0.80655231	0.001611172	15950.854
0.000117645	0.44045432	404.77705	587194.5	1943.1899	1.0012632	7.77E-05	0.021367476	0.000218087	0.16972354	0.000324528	6.27E-05	6.17E-07	0.80655231	0.001673099	16614.425
0.000118498	0.44046771	404.79499	587187.23	1943.2564	1.0012188	8.06E-05	0.021356552	0.000226437	0.16964494	0.000336899	6.43E-05	6.35E-07	0.80655231	0.001737352	17305.543
0.00011935	0.44048166	404.81367	587179.65	1943.3256	1.0011726	8.37E-05	0.02134522	0.000235101	0.16956342	0.000349736	6.59E-05	6.53E-07	0.80655231	0.001804016	18025.318
0.000120203	0.44049618	404.83314	587171.77	1943.3977	1.0011245	8.69E-05	0.021333466	0.000244089	0.16947887	0.000363055	6.75E-05	6.71E-07	0.80655231	0.001873178	18774.897
0.000121055	0.4405113	404.85341	587163.55	1943.4728	1.0010744	9.01E-05	0.021321274	0.000253414	0.16939119	0.000376874	6.92E-05	6.90E-07	0.80655231	0.001944929	19555.462
0.000121908	0.44052705	404.87452	587154.99	1943.551	1.0010222	9.36E-05	0.021308629	0.000263087	0.16930027	0.000391211	7.09E-05	7.10E-07	0.80655231	0.002019363	20368.237
0.000122761	0.44054346	404.89651	587146.08	1943.6324	1.0009678	9.71E-05	0.021295514	0.000273123	0.169206	0.000406084	7.26E-05	7.30E-07	0.80655231	0.002096576	21214.482
0.000123613	0.44056054	404.91942	587136.8	1943.7172	1.0009112	0.000100767	0.021281913	0.000283533	0.16910824	0.000421514	7.43E-05	7.50E-07	0.80655231	0.002176669	22095.496
0.000124466	0.44057832	404.94328	587127.13	1943.8055	1.0008522	0.000104572	0.021267809	0.000294331	0.16900689	0.000437519	7.61E-05	7.71E-07	0.80655231	0.002259743	23012.614
0.000125318	0.44059684	404.96813	587117.06	1943.8974	1.0007908	0.000108516	0.021253183	0.000305531	0.16890181	0.000454122	7.78E-05	7.93E-07	0.80655231	0.002345906	23967.214
0.000126171	0.44061613	404.994	587106.57	1943.9932	1.0007268	0.000112605	0.021238018	0.000317149	0.16879287	0.000471342	7.96E-05	8.15E-07	0.80655231	0.002435268	24960.707
0.000127023	0.44063621	405.02096	587095.64	1944.0928	1.0006603	0.000116843	0.021222294	0.000329197	0.16867995	0.000489202	8.14E-05	8.37E-07	0.80655231	0.002527941	25994.545
0.000127876	0.44065712	405.04902	587084.27	1944.1966	1.0005909	0.000121237	0.021205992	0.000341693	0.16856289	0.000507725	8.33E-05	8.60E-07	0.80655231	0.002624044	27070.213
0.000128729	0.44067889	405.07825	587072.42	1944.3047	1.0005187	0.00012579	0.021189092	0.000354652	0.16844155	0.000526934	8.51E-05	8.84E-07	0.80655231	0.002723696	28189.237
0.000129581	0.44070156	405.10869	587060.09	1944.4172	1.0004435	0.000130509	0.021171572	0.00036809	0.1683158	0.000546853	8.69E-05	9.08E-07	0.80655231	0.002827023	29353.174
0.000130434	0.44072516	405.14039	587047.24	1944.5344	1.0003653	0.000135398	0.021153412	0.000382025	0.16818546	0.000567507	8.88E-05	9.33E-07	0.80655231	0.002934151	30563.617
0.000131286	0.44074972	405.17339	587033.87	1944.6563	1.0002838	0.000140465	0.021134589	0.000396474	0.1680504	0.000588922	9.07E-05	9.58E-07	0.80655231	0.003045214	31822.192
0.000132139	0.4407753	405.20775	587019.94	1944.7832	1.000199	0.000145715	0.021115081	0.000411454	0.16791045	0.000611123	9.25E-05	9.84E-07	0.80655231	0.003160348	33130.556
0.000132992	0.44080192	405.24352	587005.44	1944.9154	1.0001107	0.000151154	0.021094865	0.000426986	0.16776543	0.000634138	9.44E-05	1.01E-06	0.80655231	0.003279691	34490.396
0.000133844	0.44082962	405.28076	586990.35	1945.0529	1.0000188	0.000156789	0.021073915	0.000443087	0.16761518	0.000657996	9.63E-05	1.04E-06	0.80655231	0.00340339	35903.427
0.000134697	0.44085846	405.31953	586974.64	1945.196	0.99992313	0.000162625	0.021052209	0.000459779	0.16745953	0.000682723	9.82E-05	1.06E-06	0.80655231	0.003531591	37371.391
0.000135549	0.44088847	405.35988	586958.28	1945.345	0.99982359	0.00016867	0.021029719	0.00047708	0.16729829	0.000708351	0.000100043	1.09E-06	0.80655231	0.003664447	38896.053
0.000136402	0.4409197	405.40188	586941.26	1945.5	0.99972001	0.00017493	0.021006421	0.000495013	0.16713128	0.00073491	0.000101908	1.12E-06	0.80655231	0.003802115	40479.2
0.000137255	0.44095219	405.44559	586923.55	1945.6612	0.99961225	0.000181413	0.020982287	0.000513599	0.1669583	0.00076243	0.000103763	1.15E-06	0.80655231	0.003944755	42122.64
0.000138107	0.44098599	405.49107	586905.12	1945.829	0.99950013	0.000188126	0.02095729	0.00053286	0.16677915	0.000790943	0.000105607	1.18E-06	0.80655231	0.004092534	43828.198
0.00013896	0.44102116	405.53839	586885.94	1946.0036	0.9993835	0.000195075	0.020931402	0.000552819	0.16659365	0.000820483	0.000107435	1.21E-06	0.80655231	0.00424562	45597.71
0.000139812	0.44105774	405.58762	586865.98	1946.1851	0.9992622	0.000202269	0.020904593	0.000573501	0.16640157	0.000851082	0.000109246	1.24E-06	0.80655231	0.004404187	47433.029
0.000140665	0.44109578	405.63883	586845.23	1946.3739	0.99913605	0.000209716	0.020876834	0.000594928	0.16620272	0.000882776	0.000111037	1.27E-06	0.80655231	0.004568414	49336.013
0.000141518	0.44113535	405.69209	586823.64	1946.5703	0.99900487	0.000217423	0.020848095	0.000617127	0.16599686	0.0009156	0.000112805	1.30E-06	0.80655231	0.004738484	51308.528
0.00014237	0.44117648	405.74748	586801.19	1946.7745	0.99886849	0.000225398	0.020818345	0.000640123	0.16578377	0.000949589	0.000114546	1.34E-06	0.80655231	0.004914582	53352.443
0.000143223	0.44121925	405.80508	586777.85	1946.9867	0.99872672	0.00023365	0.020787551	0.000663942	0.16556324	0.000984782	0.000116259	1.37E-06	0.80655231	0.005096902	55469.628
0.000144075	0.44126371	405.86496	586753.58	1947.2074	0.99857937	0.000242187	0.020755682	0.000688611	0.16533502	0.001021215	0.00011794	1.40E-06	0.80655231	0.005285637	57661.95
0.000144928	0.44130991	405.9272	586728.35	1947.4367	0.99842624	0.000251018	0.020722704	0.000714159	0.16509887	0.001058927	0.000119587	1.44E-06	0.80655231	0.005480988	59931.271
0.00014578	0.44135793	405.9919	586702.13	1947.675	0.99826715	0.000260151	0.020688583	0.000740613	0.16485456	0.001097958	0.000121197	1.47E-06	0.80655231	0.00568316	62279.447
0.000146633	0.44140782	406.05912	586674.89	1947.9227	0.99810188	0.000269596	0.020653284	0.000768003	0.16460183	0.001138348	0.000122768	1.51E-06	0.80655231	0.005892361	64708.323
0.000147486	0.44145964	406.12897	586646.58	1948.1799	0.99793023	0.000279361	0.020616773	0.000796359	0.16434042	0.001180138	0.000124297	1.54E-06	0.80655231	0.006108802	67219.731
0.000148338	0.44151346	406.20152	586617.18	1948.447	0.99775199	0.000289456	0.020579014	0.000825711	0.16407008	0.001223371	0.000125783	1.58E-06	0.80655231	0.0063327	69815.49
0.000149191	0.44156936	406.27687	586586.64	1948.7245	0.99756694	0.00029989	0.02053997	0.000856091	0.16379054	0.001268087	0.000127222	1.62E-06	0.80655231	0.006564276	72497.4
0.000150043	0.44162739	406.35511	586554.93	1949.0125	0.99737486	0.000310673	0.020499604	0.000887531	0.16350153	0.001314332	0.000128614	1.66E-06	0.80655231	0.006803753	75267.246
0.000150896	0.44168763	406.43634	586522.01	1949.3115	0.99717553	0.000321814	0.020457878	0.000920064	0.16320278	0.001362149	0.000129956	1.70E-06	0.80655231	0.007051358	78126.789
0.000151749	0.44175014	406.52065	586487.83	1949.6218	0.99696871	0.000333324	0.020414754	0.000953723	0.162894	0.001411583	0.000131247	1.74E-06	0.80655231	0.007307322	81077.772
0.000152601	0.44181501	406.60815	586452.37	1949.9438	0.99675419	0.000345211	0.020370193	0.000988543	0.16257492	0.001462678	0.000132485	1.78E-06	0.80655231	0.00757188	84121.912
0.000153454	0.4418823	406.69892	586415.58	1950.2779	0.99653171	0.000357487	0.020324157	0.001024558	0.16224525	0.001515482	0.00013367	1.82E-06	0.80655231	0.007845267	87260.905
0.000154306	0.4419521	406.79308	586377.42	1950.6243	0.99630105	0.00037016	0.020276606	0.001061804	0.16190469	0.001570041	0.0001348	1.86E-06	0.80655231	0.008127724	90496.419
0.000155159	0.44202447	406.89073	586337.85	1950.9836	0.99606196	0.000383242	0.020227499	0.001100316	0.16155296	0.001626401	0.000135875	1.91E-06	0.80655231	0.008419493	93830.099
0.000156012	0.44209949	406.99197	586296.82	1951.356	0.99581419	0.000396742	0.020176796	0.001140133	0.16118974	0.001684611	0.000136894	1.96E-06	0.80655231	0.008720817	97263.56
0.000156864	0.44217725	407.09691	586254.29	1951.7421	0.99555749	0.000410671	0.020124458	0.001181291	0.16081475	0.001744719	0.000137857	2.00E-06	0.80655231	0.009031943	100798.39
0.000157717	0.44225783	407.20566	586210.21	1952.1421	0.99529161	0.000425039	0.020070442	0.001223829	0.16042768	0.001806773	0.000138764	2.05E-06	0.80655231	0.009353118	104436.15
0.000158569	0.4423413	407.31833	586164.55	1952.5566	0.9950163	0.000439855	0.020014708	0.001267785	0.16002821	0.001870821	0.000139616	2.10E-06	0.80655231	0.00968459	108178.38
0.000159422	0.44242775	407.43503	586117.25	1952.9858	0.99473129	0.000455131	0.019957215	0.001313198	0.15961606	0.001936913	0.000140413	2.15E-06	0.80655231	0.01002661	112026.55
0.000160275	0.44251727	407.55588	586068.27	1953.4303	0.99443632	0.000470876	0.019897923	0.001360108	0.1591909	0.002005098	0.000141155	2.21E-06	0.80655231	0.010379426	115982.15
0.000161127	0.44260994	407.681	586017.56	1953.8905	0.99413113	0.0004871	0.01983679	0.001408555	0.15875243	0.002075424	0.000141843	2.27E-06	0.80655231	0.010743287	120046.59
0.00016198	0.44270585	407.81049	585965.08	1954.3667	0.99381546	0.000503814	0.019773775	0.00145858	0.15830034	0.002147942	0.00014248	2.32E-06	0.80655231	0.011118442	124221.27
0.000162832	0.44280508	407.94449	585910.77	1954.8595	0.99348902	0.000521027	0.019708838	0.001510223	0.15783432	0.0022227	0.000143065	2.39E-06	0.80655231	0.011505139	128507.52
0.000163685	0.44290773	408.08311	585854.59	1955.3693	0.99315155	0.000538748	0.019641939	0.001563525	0.15735406	0.002299747	0.0001436	2.45E-06	0.80655231	0.011903622	132906.65
0.000164537	0.44301388	408.22647	585796.49	1955.8966	0.99280278	0.000556988	0.019573039	0.001618529	0.15685927	0.002379132	0.000144088	2.52E-06	0.80655231	0.012314135	137419.89
0.00016539	0.44312363	408.37469	585736.41	1956.4417	0.99244243	0.000575755	0.019502098	0.001675275	0.15634963	0.002460902	0.000144528	2.58E-06	0.80655231	0.012736917	142048.42
0.000166243	0.44323706	408.52791	585674.32	1957.0051	0.99207022	0.000595058	0.019429079	0.001733806	0.15582486	0.002545105	0.000144925	2.66E-06	0.80655231	0.013172204	146793.35
0.000167095	0.44335427	408.68624	585610.15	1957.5874	0.99168587	0.000614907	0.019353943	0.001794164	0.15528465	0.002631788	0.000145278	2.73E-06	0.80655231	0.013620228	151655.74
0.000167948	0.44347536	408.84982	585543.85	1958.189	0.9912891	0.000635308	0.019276655	0.001856389	0.15472872	0.002720997	0.00014559	2.81E-06	0.80655231	0.014081215	156636.52
0.0001688	0.44360042	409.01877	585475.38	1958.8103	0.99087964	0.000656271	0.019197179	0.001920525	0.15415679	0.002812777	0.000145863	2.90E-06	0.80655231	0.014555386	161736.55
0.000169653	0.44372955	409.19322	585404.67	1959.4519	0.9904572	0.000677803	0.019115481	0.001986612	0.15356859	0.00290717	0.000146099	2.98E-06	0.80655231	0.015042952	166956.58
0.000170506	0.44386283	409.3733	585331.69	1960.1142	0.99002151	0.00069991	0.019031529	0.002054692	0.15296384	0.00300422	0.0001463	3.08E-06	0.80655231	0.015544121	172297.24
0.000171358	0.44400037	409.55915	585256.37	1960.7978	0.98957227	0.0007226	0.018945291	0.002124805	0.1523423	0.003103968	0.000146467	3.17E-06	0.80655231	0.016059088	177759.01
0.000172211	0.44414227	409.75088	585178.66	1961.503	0.98910921	0.000745878	0.018856739	0.002196993	0.15170371	0.003206451	0.000146602	3.28E-06	0.80655231	0.016588041	183342.24
0.000173063	0.44428861	409.94865	585098.51	1962.2304	0.98863205	0.000769749	0.018765844	0.002271295	0.15104785	0.003311709	0.000146708	3.38E-06	0.80655231	0.017131157	189047.1
0.000173916	0.44443951	410.15257	585015.86	1962.9805	0.98814052	0.000794219	0.018672582	0.002347751	0.15037448	0.003419775	0.000146784	3.49E-06	0.80655231	0.017688602	194873.6
0.000174769	0.44459505	410.36278	584930.67	1963.7537	0.98763434	0.000819291	0.018576929	0.002426398	0.14968342	0.003530682	0.000146834	3.61E-06	0.80655231	0.018260526	200821.53
0.000175621	0.44475533	410.57941	584842.87	1964.5506	0.98711324	0.000844969	0.018478865	0.002507274	0.14897446	0.00364446	0.000146858	3.74E-06	0.80655231	0.018847071	206890.49
0.000176474	0.44492046	410.8026	584752.41	1965.3717	0.98657694	0.000871254	0.018378372	0.002590416	0.14824743	0.003761138	0.000146857	3.87E-06	0.80655231	0.01944836	213079.82
0.000177326	0.44509052	411.03247	584659.25	1966.2174	0.9860252	0.000898149	0.018275434	0.002675859	0.14750217	0.003880738	0.000146832	4.00E-06	0.80655231	0.020064502	219388.66
0.000178179	0.44526561	411.26916	584563.32	1967.0882	0.98545773	0.000925655	0.018170039	0.002763636	0.14673856	0.004003282	0.000146785	4.15E-06	0.80655231	0.020695588	225815.84
0.000179031	0.44544584	411.51279	584464.58	1967.9846	0.9848743	0.00095377	0.018062178	0.002853781	0.14595646	0.004128789	0.000146717	4.30E-06	0.80655231	0.021341694	232359.95
0.000179884	0.44563128	411.7635	584362.97	1968.9071	0.98427466	0.000982495	0.017951846	0.002946323	0.1451558	0.004257271	0.000146627	4.46E-06	0.80655231	0.022002874	239019.26
0.000180737	0.44582204	412.0214	584258.45	1969.8561	0.98365855	0.001011825	0.01783904	0.003041293	0.14433649	0.00438874	0.000146516	4.62E-06	0.80655231	0.022679163	245791.75
0.000181589	0.4460182	412.28662	584150.95	1970.8321	0.98302577	0.001041759	0.017723761	0.003138716	0.1434985	0.0045232	0.000146386	4.79E-06	0.80655231	0.023370576	252675.08
0.000182442	0.44621985	412.55929	584040.45	1971.8355	0.98237607	0.001072291	0.017606015	0.003238619	0.1426418	0.004660653	0.000146235	4.98E-06	0.80655231	0.024077104	259666.57
0.000183294	0.44642708	412.83952	583926.87	1972.8669	0.98170924	0.001103416	0.017485811	0.003341023	0.1417664	0.004801097	0.000146064	5.17E-06	0.80655231	0.024798715	266763.2
0.000184147	0.44663998	413.12743	583810.19	1973.9265	0.98102509	0.001135126	0.017363163	0.00344595	0.14087233	0.004944523	0.000145874	5.36E-06	0.80655231	0.025535355	273961.61
0.000185	0.44685863	413.42313	583690.34	1975.0149	0.98032342	0.001167414	0.01723809	0.003553417	0.13995967	0.005090919	0.000145664	5.57E-06	0.80655231	0.026286942	281258.07
0.000185852	0.4470831	413.72672	583567.3	1976.1324	0.97960405	0.00120027	0.017110612	0.00366344	0.13902851	0.005240266	0.000145434	5.79E-06	0.80655231	0.027053371	288648.48
0.000186705	0.44731347	414.03832	583441.01	1977.2795	0.97886682	0.001233683	0.016980759	0.003776031	0.13807897	0.00539254	0.000145185	6.01E-06	0.80655231	0.027834507	296128.37
0.000187557	0.44754982	414.35801	583311.44	1978.4564	0.97811158	0.00126764	0.016848561	0.003891199	0.13711123	0.005547713	0.000144914	6.24E-06	0.80655231	0.02863019	303692.91
0.00018841	0.4477922	414.6859	583178.55	1979.6636	0.97733819	0.001302129	0.016714057	0.00400895	0.13612546	0.00570575	0.000144624	6.48E-06	0.80655231	0.02944023	311336.87
0.000189263	0.44804069	415.02208	583042.31	1980.9013	0.97654653	0.001337133	0.016577286	0.004129287	0.13512192	0.005866608	0.000144312	6.74E-06	0.80655231	0.030264408	319054.66
0.000190115	0.44829535	415.36662	582902.67	1982.1699	0.97573651	0.001372638	0.016438298	0.00425221	0.13410084	0.006030243	0.000143979	7.00E-06	0.80655231	0.031102478	326840.31
0.000190968	0.44855623	415.7196	582759.61	1983.4697	0.97490802	0.001408624	0.016297143	0.004377715	0.13306255	0.0061966	0.000143625	7.26E-06	0.80655231	0.031954162	334687.5
0.00019182	0.44882338	416.08109	582613.1	1984.8008	0.97406102	0.001445072	0.016153878	0.004505793	0.13200738	0.006365621	0.000143248	7.54E-06	0.80655231	0.032819151	342589.52
0.000192673	0.44909684	416.45116	582463.12	1986.1636	0.97319545	0.001481962	0.016008568	0.004636432	0.13093569	0.006537239	0.00014285	7.83E-06	0.80655231	0.033697108	350539.32
0.000193526	0.44937666	416.82986	582309.64	1987.5583	0.97231129	0.001519271	0.015861278	0.004769618	0.12984791	0.006711383	0.000142428	8.13E-06	0.80655231	0.034587665	358529.49
0.000194378	0.44966287	417.21723	582152.64	1988.985	0.97140853	0.001556977	0.015712082	0.004905329	0.12874448	0.006887975	0.000141983	8.43E-06	0.80655231	0.035490423	366552.32
0.000195231	0.4499555	417.61332	581992.11	1990.4438	0.97048719	0.001595053	0.015561058	0.005043542	0.12762589	0.007066931	0.000141515	8.75E-06	0.80655231	0.036404952	374599.74
0.000196083	0.45025456	418.01815	581828.03	1991.935	0.96954731	0.001633475	0.015408289	0.005184228	0.12649264	0.00724816	0.000141023	9.07E-06	0.80655231	0.037330794	382663.42
0.000196936	0.45056007	418.43175	581660.41	1993.4584	0.96858896	0.001672213	0.015253863	0.005327354	0.12534532	0.007431564	0.000140508	9.40E-06	0.80655231	0.038267461	390734.7
0.000197788	0.45087204	418.85413	581489.22	1995.0143	0.96761221	0.001711241	0.015097871	0.005472884	0.1241845	0.007617042	0.000139967	9.74E-06	0.80655231	0.039214437	398804.7
0.000198641	0.45119048	419.2853	581314.47	1996.6026	0.96661718	0.001750526	0.014940413	0.005620775	0.12301082	0.007804484	0.000139403	1.01E-05	0.80655231	0.040171177	406864.28
0.000199494	0.45151536	419.72524	581136.17	1998.2233	0.965604	0.00179004	0.014781588	0.005770982	0.12182493	0.007993777	0.000138813	1.04E-05	0.80655231	0.041137109	414904.09
0.000200346	0.45184669	420.17394	580954.32	1999.8763	0.96457284	0.001829749	0.014621504	0.005923452	0.12062754	0.0081848	0.000138199	1.08E-05	0.80655231	0.042111637	422914.59
0.000201199	0.45218444	420.63138	580768.92	2001.5615	0.96352387	0.00186962	0.014460271	0.006078132	0.11941936	0.008377429	0.00013756	1.12E-05	0.80655231	0.043094137	430886.08
0.000202051	0.45252857	421.09751	580580	2003.2787	0.96245729	0.00190962	0.014298002	0.006234961	0.11820116	0.008571533	0.000136896	1.15E-05	0.80655231	0.044083966	438808.73
0.000202904	0.45287906	421.5723	580387.58	2005.0279	0.96137335	0.001949713	0.014134816	0.006393874	0.11697371	0.008766979	0.000136208	1.19E-05	0.80655231	0.045080455	446672.63
0.000203757	0.45323586	422.05567	580191.67	2006.8087	0.96027231	0.001989865	0.013970831	0.006554802	0.11573783	0.008963626	0.000135495	1.23E-05	0.80655231	0.046082919	454467.8
0.000204609	0.45359891	422.54757	579992.31	2008.6209	0.95915443	0.002030039	0.013806172	0.006717673	0.11449435	0.009161333	0.000134758	1.27E-05	0.80655231	0.047090651	462184.22
0.000205462	0.45396817	423.04791	579789.53	2010.4642	0.95802003	0.002070199	0.013640965	0.006882408	0.11324413	0.009359953	0.000133996	1.31E-05	0.80655231	0.048102931	469811.91
0.000206314	0.45434355	423.55661	579583.36	2012.3383	0.95686944	0.002110308	0.013475338	0.007048925	0.11198804	0.009559337	0.000133211	1.35E-05	0.80655231	0.049119021	477340.91
0.000207167	0.45472499	424.07356	579373.85	2014.2428	0.955703	0.002150328	0.013309421	0.007217138	0.11072698	0.009759333	0.000132402	1.39E-05	0.80655231	0.050138174	484761.37
0.00020802	0.45511239	424.59865	579161.03	2016.1772	0.9545211	0.002190224	0.013143345	0.007386957	0.10946186	0.009959787	0.00013157	1.43E-05	0.80655231	0.051159631	492063.56
0.000208872	0.45550568	425.13177	578944.97	2018.1411	0.95332414	0.002229956	0.012977241	0.007558289	0.10819359	0.010160544	0.000130716	1.47E-05	0.80655231	0.052182625	499237.91
0.000209725	0.45590474	425.67277	578725.71	2020.134	0.95211252	0.002269489	0.012811244	0.007731034	0.10692312	0.010361446	0.00012984	1.51E-05	0.80655231	0.053206386	506275.06
0.000210577	0.45630948	426.22152	578503.3	2022.1553	0.95088669	0.002308785	0.012645486	0.007905093	0.10565136	0.010562338	0.000128943	1.55E-05	0.80655231	0.054230137	513165.9
0.00021143	0.45671979	426.77787	578277.82	2024.2045	0.94964711	0.002347808	0.012480099	0.00808036	0.10437928	0.01076306	0.000128026	1.59E-05	0.80655231	0.055253102	519901.6
0.000212282	0.45713553	427.34166	578049.32	2026.281	0.94839426	0.002386522	0.012315216	0.008256728	0.10310781	0.010963457	0.000127088	1.63E-05	0.80655231	0.056274509	526473.64
0.000213135	0.4575566	427.91271	577817.88	2028.384	0.94712862	0.002424892	0.012150967	0.008434087	0.10183788	0.011163372	0.000126132	1.68E-05	0.80655231	0.057293585	532873.86
0.000213988	0.45798284	428.49085	577583.57	2030.513	0.94585072	0.002462882	0.011987482	0.008612324	0.10057044	0.011362651	0.000125158	1.72E-05	0.80655231	0.058309568	539094.5
0.00021484	0.45841413	429.07588	577346.46	2032.6673	0.94456106	0.00250046	0.011824887	0.008791322	0.099306424	0.011561141	0.000124167	1.76E-05	0.80655231	0.059321703	545128.2
0.000215693	0.45885032	429.66763	577106.64	2034.8459	0.9432602	0.002537592	0.011663309	0.008970965	0.098046739	0.011758694	0.00012316	1.80E-05	0.80655231	0.060329245	550968.08
0.000216545	0.45929125	430.26587	576864.17	2037.0483	0.94194868	0.002574246	0.011502868	0.009151133	0.096792296	0.011955161	0.000122137	1.84E-05	0.80655231	0.061331463	556607.71
0.000217398	0.45973678	430.87041	576619.16	2039.2736	0.94062706	0.002610393	0.011343685	0.009331705	0.095543984	0.012150401	0.000121101	1.88E-05	0.80655231	0.062327643	562041.19
0.000218251	0.46018675	431.48103	576371.68	2041.521	0.93929592	0.002646002	0.011185875	0.009512559	0.094302676	0.012344273	0.000120052	1.91E-05	0.80655231	0.063317086	567263.13
0.000219103	0.46064098	432.0975	576121.83	2043.7896	0.93795583	0.002681046	0.011029549	0.009693572	0.093069224	0.012536643	0.000118991	1.95E-05	0.80655231	0.064299113	572268.7
0.000219956	0.46109931	432.71961	575869.7	2046.0785	0.93660737	0.002715498	0.010874817	0.00987462	0.091844457	0.012727382	0.000117919	1.99E-05	0.80655231	0.065273069	577053.6
0.000220808	0.46156158	433.3471	575615.39	2048.387	0.93525114	0.002749333	0.01072178	0.010055579	0.090629179	0.012916365	0.000116838	2.03E-05	0.80655231	0.066238317	581614.14
0.000221661	0.4620276	433.97976	575358.98	2050.714	0.93388772	0.002782527	0.010570538	0.010236325	0.089424167	0.013103472	0.000115748	2.06E-05	0.80655231	0.067194249	585947.2
0.000222514	0.4624972	434.61734	575100.57	2053.0587	0.93251772	0.002815059	0.010421184	0.010416734	0.088230169	0.013288591	0.000114652	2.10E-05	0.80655231	0.06814028	590050.24
0.000223366	0.46297021	435.2596	574840.27	2055.4201	0.93114171	0.002846909	0.010273808	0.010596682	0.087047903	0.013471615	0.000113549	2.13E-05	0.80655231	0.069075855	593921.3
0.000224219	0.46344643	435.9063	574578.17	2057.7973	0.9297603	0.002878058	0.010128494	0.010776047	0.085878053	0.013652443	0.000112442	2.17E-05	0.80655231	0.070000445	597559.04
0.000225071	0.46392569	436.55718	574314.38	2060.1894	0.92837408	0.002908488	0.009985318	0.010954708	0.084721272	0.013830981	0.000111331	2.20E-05	0.80655231	0.070913551	600962.67
0.000225924	0.46440781	437.21201	574048.99	2062.5955	0.92698363	0.002938186	0.009844355	0.011132545	0.083578176	0.014007143	0.000110217	2.23E-05	0.80655231	0.071814705	604131.99
0.000226777	0.46489261	437.87053	573782.1	2065.0145	0.92558953	0.002967136	0.009705671	0.011309439	0.082449348	0.014180849	0.000109103	2.26E-05	0.80655231	0.072703469	607067.36
0.000227629	0.4653799	438.53249	573513.81	2067.4455	0.92419235	0.002995329	0.009569327	0.011485274	0.081335331	0.014352025	0.000107988	2.29E-05	0.80655231	0.073579437	609769.69
0.000228482	0.4658695	439.19766	573244.23	2069.8877	0.92279266	0.003022754	0.009435379	0.011659938	0.080236635	0.014520605	0.000106874	2.32E-05	0.80655231	0.074442233	612240.42
0.000229334	0.46636123	439.86578	572973.44	2072.34	0.92139101	0.003049403	0.009303878	0.011833317	0.07915373	0.01468653	0.000105763	2.35E-05	0.80655231	0.075291515	614481.5
0.000230187	0.46685491	440.53661	572701.56	2074.8016	0.91998796	0.003075269	0.009174868	0.012005304	0.078087049	0.014849749	0.000104654	2.38E-05	0.80655231	0.076126972	616495.37
0.000231039	0.46735037	441.20991	572428.68	2077.2714	0.91858403	0.003100347	0.009048387	0.012175792	0.077036986	0.015010216	0.00010355	2.40E-05	0.80655231	0.076948324	618284.93
0.000231892	0.46784744	441.88544	572154.9	2079.7487	0.91717974	0.003124635	0.008924469	0.01234468	0.0760039	0.015167893	0.000102451	2.43E-05	0.80655231	0.077755324	619853.53
0.000232745	0.46834593	442.56297	571880.3	2082.2324	0.91577561	0.00314813	0.008803142	0.012511868	0.074988111	0.01532275	0.000101358	2.45E-05	0.80655231	0.078547755	621204.92
0.000233597	0.46884568	443.24226	571604.99	2084.7218	0.91437213	0.003170832	0.008684427	0.012677261	0.0739899	0.01547476	0.000100272	2.48E-05	0.80655231	0.079325431	622343.24
0.00023445	0.46934652	443.92309	571329.06	2087.2159	0.91296979	0.003192743	0.008568342	0.012840768	0.073009516	0.015623907	9.92E-05	2.50E-05	0.80655231	0.080088196	623272.98
0.000235302	0.46984829	444.60524	571052.59	2089.714	0.91156903	0.003213865	0.008454899	0.013002299	0.072047167	0.015770178	9.81E-05	2.52E-05	0.80655231	0.080835924	623998.95
0.000236155	0.47035084	445.28849	570775.68	2092.2151	0.91017033	0.003234203	0.008344106	0.013161773	0.071103031	0.015913567	9.71E-05	2.54E-05	0.80655231	0.081568518	624526.26
0.000237008	0.470854	445.97262	570498.41	2094.7185	0.90877411	0.003253761	0.008235965	0.013319108	0.070177247	0.016054073	9.60E-05	2.56E-05	0.80655231	0.082285906	624860.26
0.00023786	0.47135762	446.65744	570220.86	2097.2234	0.90738078	0.003272546	0.008130474	0.01347423	0.069269925	0.016191703	9.50E-05	2.57E-05	0.80655231	0.082988046	625006.54
0.000238713	0.47186156	447.34273	569943.12	2099.729	0.90599075	0.003290567	0.008027626	0.013627068	0.06838114	0.016326466	9.39E-05	2.59E-05	0.80655231	0.08367492	624970.9
0.000239565	0.47236568	448.0283	569665.27	2102.2346	0.9046044	0.003307831	0.007927411	0.013777555	0.067510938	0.016458377	9.29E-05	2.61E-05	0.80655231	0.084346535	624759.3
0.000240418	0.47286984	448.71397	569387.37	2104.7394	0.90322209	0.003324348	0.007829815	0.01392563	0.066659333	0.016587457	9.19E-05	2.62E-05	0.80655231	0.085002922	624377.81
0.000241271	0.4733739	449.39955	569109.52	2107.2428	0.90184418	0.003340129	0.00773482	0.014071234	0.065826313	0.01671373	9.09E-05	2.63E-05	0.80655231	0.085644134	623832.66
0.000242123	0.47387773	450.08487	568831.77	2109.7441	0.900471	0.003355186	0.007642404	0.014214314	0.065011837	0.016837224	9.00E-05	2.65E-05	0.80655231	0.086270245	623130.12
0.000242976	0.47438122	450.76975	568554.19	2112.2426	0.89910286	0.003369531	0.007552542	0.014354823	0.06421584	0.016957971	8.90E-05	2.66E-05	0.80655231	0.086881351	622276.53
0.000243828	0.47488424	451.45403	568276.86	2114.7378	0.89774006	0.003383175	0.007465207	0.014492717	0.06343823	0.017076007	8.81E-05	2.67E-05	0.80655231	0.087477563	621278.26
0.000244681	0.47538669	452.13756	567999.83	2117.2289	0.89638288	0.003396134	0.007380369	0.014627955	0.062678895	0.01719137	8.71E-05	2.68E-05	0.80655231	0.088059013	620141.69
0.000245534	0.47588844	452.82019	567723.17	2119.7156	0.89503158	0.003408421	0.007297994	0.014760503	0.061937698	0.017304101	8.62E-05	2.69E-05	0.80655231	0.088625849	618873.15
0.000246386	0.4763894	453.50177	567446.93	2122.1971	0.89368642	0.003420051	0.007218047	0.014890331	0.061214485	0.017414243	8.53E-05	2.69E-05	0.80655231	0.089178231	617479
0.000247239	0.47688946	454.18217	567171.18	2124.6731	0.89234762	0.003431039	0.00714049	0.015017412	0.060509082	0.017521844	8.44E-05	2.70E-05	0.80655231	0.089716339	615965.46
0.000248091	0.47738854	454.86125	566895.95	2127.1429	0.89101539	0.0034414	0.007065285	0.015141724	0.059821296	0.017626951	8.36E-05	2.71E-05	0.80655231	0.090240359	614338.73
0.000248944	0.47788654	455.53889	566621.31	2129.6062	0.88968995	0.003451149	0.006992389	0.01526325	0.059150921	0.017729612	8.27E-05	2.71E-05	0.80655231	0.090750494	612604.91
0.000249796	0.47838338	456.21498	566347.3	2132.0625	0.88837147	0.003460303	0.006921761	0.015381977	0.058497733	0.01782988	8.19E-05	2.72E-05	0.80655231	0.091246955	610769.98
0.000250649	0.47887898	456.8894	566073.97	2134.5113	0.88706013	0.003468877	0.006853357	0.015497894	0.057861496	0.017927805	8.10E-05	2.72E-05	0.80655231	0.091729964	608839.81
0.000251502	0.47937325	457.56205	565801.35	2136.9523	0.88575609	0.003476888	0.006787131	0.015610996	0.057241961	0.018023442	8.02E-05	2.72E-05	0.80655231	0.092199749	606820.12
0.000252354	0.47986614	458.23283	565529.49	2139.3851	0.88445948	0.003484352	0.006723037	0.015721281	0.056638871	0.018116843	7.94E-05	2.72E-05	0.80655231	0.092656548	604716.52
0.000253207	0.48035757	458.90165	565258.43	2141.8094	0.88317044	0.003491285	0.00666103	0.015828751	0.056051955	0.018208063	7.87E-05	2.73E-05	0.80655231	0.093100605	602534.45
0.000254059	0.48084749	459.56842	564988.19	2144.2248	0.88188909	0.003497704	0.006601061	0.015933411	0.055480936	0.018297156	7.79E-05	2.73E-05	0.80655231	0.093532168	600279.19
0.000254912	0.48133582	460.23305	564718.82	2146.631	0.88061553	0.003503624	0.006543083	0.016035269	0.054925529	0.018384176	7.72E-05	2.73E-05	0.80655231	0.093951492	597955.87
0.000255765	0.48182252	460.89548	564450.35	2149.0277	0.87934985	0.003509062	0.006487047	0.016134338	0.054385441	0.018469178	7.65E-05	2.73E-05	0.80655231	0.094358833	595569.42
0.000256617	0.48230753	461.55563	564182.8	2151.4147	0.87809215	0.003514034	0.006432906	0.016230632	0.053860376	0.018552216	7.57E-05	2.73E-05	0.80655231	0.094754453	593124.65
0.00025747	0.48279081	462.21343	563916.2	2153.7917	0.87684248	0.003518555	0.00638061	0.016324169	0.053350031	0.018633344	7.50E-05	2.73E-05	0.80655231	0.095138614	590626.13
0.000258322	0.48327231	462.86883	563650.58	2156.1585	0.87560093	0.003522642	0.006330112	0.01641497	0.0528541	0.018712614	7.44E-05	2.72E-05	0.80655231	0.095511581	588078.32
0.000259175	0.483752	463.52176	563385.95	2158.5148	0.87436752	0.003526308	0.006281363	0.016503057	0.052372276	0.018790081	7.37E-05	2.72E-05	0.80655231	0.09587362	585485.44
0.000260028	0.48422983	464.17218	563122.34	2160.8606	0.87314232	0.003529571	0.006234315	0.016588457	0.051904248	0.018865794	7.31E-05	2.72E-05	0.80655231	0.096224995	582851.58
0.00026088	0.48470578	464.82003	562859.78	2163.1955	0.87192536	0.003532444	0.006188921	0.016671198	0.051449703	0.018939807	7.24E-05	2.72E-05	0.80655231	0.096565972	580180.62
0.000261733	0.48517981	465.46528	562598.26	2165.5195	0.87071666	0.003534943	0.006145133	0.016751309	0.05100833	0.019012168	7.18E-05	2.71E-05	0.80655231	0.096896816	577476.28
0.000262585	0.48565188	466.10788	562337.82	2167.8324	0.86951624	0.003537081	0.006102905	0.016828823	0.050579817	0.019082928	7.12E-05	2.71E-05	0.80655231	0.09721779	574742.12
0.000263438	0.48612199	466.7478	562078.47	2170.1341	0.86832411	0.003538872	0.00606219	0.016903773	0.050163851	0.019152134	7.06E-05	2.70E-05	0.80655231	0.097529156	571981.5
0.00026429	0.4865901	467.38501	561820.22	2172.4244	0.86714029	0.003540331	0.006022943	0.016976197	0.049760123	0.019219833	7.00E-05	2.70E-05	0.80655231	0.097831172	569197.63
0.000265143	0.48705619	468.01947	561563.08	2174.7033	0.86596476	0.003541471	0.005985119	0.01704613	0.049368324	0.019286072	6.95E-05	2.70E-05	0.80655231	0.098124095	566393.56
0.000266848	0.48798227	469.28007	561052.17	2179.2263	0.86363857	0.003542845	0.005913565	0.017178682	0.04861929	0.019414348	6.84E-05	2.68E-05	0.80655231	0.098683676	560736.17
0.000268383	0.48880868	470.40501	560596.25	2183.2572	0.86157324	0.003543116	0.005853598	0.017289865	0.047982913	0.01952524	6.74E-05	2.67E-05	0.80655231	0.099158713	555602.75
0.000269918	0.48962835	471.52075	560144.05	2187.2498	0.85953454	0.003542546	0.005797581	0.017393617	0.047380515	0.019632062	6.66E-05	2.66E-05	0.80655231	0.099608131	550444.16
0.000271452	0.49044123	472.62724	559695.61	2191.2041	0.85752225	0.0035412	0.00574528	0.017490196	0.046810415	0.019735042	6.57E-05	2.65E-05	0.80655231	0.1000333	545272.83
0.000272987	0.49124729	473.72442	559250.93	2195.1198	0.85553616	0.00353914	0.005696474	0.017579864	0.046270976	0.019834391	6.49E-05	2.64E-05	0.80655231	0.10043553	540099.83
0.000274522	0.49204653	474.81228	558810.03	2198.9971	0.85357601	0.003536425	0.005650951	0.01766289	0.045760617	0.01993031	6.41E-05	2.62E-05	0.80655231	0.1008161	534934.99
0.000276056	0.49283894	475.89082	558372.92	2202.8359	0.85164151	0.003533108	0.005608507	0.017739542	0.045277805	0.020022987	6.33E-05	2.61E-05	0.80655231	0.10117623	529787
0.000277591	0.49362454	476.96004	557939.57	2206.6363	0.84973234	0.003529242	0.00556895	0.017810091	0.044821067	0.020112601	6.26E-05	2.60E-05	0.80655231	0.10151708	524663.47
0.000279126	0.49440335	478.01999	557509.98	2210.3985	0.84784816	0.003524875	0.005532097	0.017874807	0.044388986	0.020199316	6.19E-05	2.58E-05	0.80655231	0.10183979	519571.09
0.00028066	0.49517541	479.07071	557084.14	2214.1227	0.84598863	0.003520051	0.005497774	0.017933957	0.0439802	0.020283287	6.13E-05	2.57E-05	0.80655231	0.1021454	514515.63
0.000282195	0.49594076	480.11224	556662.02	2217.8092	0.84415339	0.003514812	0.005465818	0.017987805	0.04359341	0.020364661	6.07E-05	2.55E-05	0.80655231	0.10243494	509502.1
0.00028373	0.49669945	481.14465	556243.6	2221.4582	0.84234205	0.003509197	0.005436074	0.01803661	0.043227373	0.020443572	6.01E-05	2.54E-05	0.80655231	0.10270938	504534.77
0.000285264	0.49745153	482.16802	555828.84	2225.0701	0.84055423	0.003503242	0.005408395	0.018080626	0.042880903	0.020520148	5.95E-05	2.52E-05	0.80655231	0.10296962	499617.3
0.000286799	0.49819707	483.18242	555417.71	2228.6452	0.83878956	0.003496981	0.005382645	0.018120102	0.042552873	0.020594506	5.89E-05	2.51E-05	0.80655231	0.10321654	494752.74
0.000288334	0.49893612	484.18795	555010.18	2232.184	0.83704763	0.003490445	0.005358694	0.018155278	0.042242208	0.020666758	5.84E-05	2.49E-05	0.80655231	0.10345095	489943.64
0.000289868	0.49966876	485.18468	554606.22	2235.6868	0.83532805	0.003483662	0.00533642	0.018186388	0.041947892	0.020737006	5.79E-05	2.47E-05	0.80655231	0.10367363	485192.1
0.000291403	0.50039506	486.17272	554205.78	2239.1539	0.83363043	0.003476659	0.00531571	0.018213659	0.041668958	0.020805348	5.74E-05	2.46E-05	0.80655231	0.10388532	480499.79
0.000292938	0.50111509	487.15216	553808.82	2242.586	0.83195437	0.00346946	0.005296456	0.018237309	0.041404493	0.020871875	5.69E-05	2.44E-05	0.80655231	0.10408669	475868.04
0.000294472	0.50182893	488.12311	553415.31	2245.9833	0.83029949	0.003462087	0.005278559	0.018257547	0.04115363	0.02093667	5.65E-05	2.43E-05	0.80655231	0.1042784	471297.87
0.000296007	0.50253666	489.08568	553025.19	2249.3465	0.82866539	0.003454563	0.005261924	0.018274576	0.040915554	0.020999813	5.60E-05	2.41E-05	0.80655231	0.10446106	466789.99
0.000297541	0.50323835	490.03995	552638.43	2252.6758	0.82705169	0.003446904	0.005246465	0.018288587	0.040689492	0.021061378	5.56E-05	2.39E-05	0.80655231	0.10463524	462344.89
0.000299076	0.50393408	490.98606	552254.99	2255.9718	0.82545801	0.00343913	0.005232099	0.018299766	0.040474716	0.021121435	5.52E-05	2.38E-05	0.80655231	0.10480148	457962.85
0.000300611	0.50462394	491.92409	551874.81	2259.2349	0.82388396	0.003431256	0.00521875	0.018308289	0.040270541	0.02118005	5.48E-05	2.36E-05	0.80655231	0.10496029	453643.94
0.000302145	0.505308	492.85417	551497.86	2262.4656	0.82232919	0.003423296	0.005206346	0.018314323	0.040076319	0.021237284	5.45E-05	2.35E-05	0.80655231	0.10511214	449388.08
0.00030368	0.50598635	493.7764	551124.1	2265.6645	0.82079332	0.003415265	0.005194821	0.018318028	0.039891443	0.021293195	5.41E-05	2.33E-05	0.80655231	0.10525747	445195.07
0.000305215	0.50665907	494.69089	550753.46	2268.8318	0.819276	0.003407175	0.005184112	0.018319557	0.03971534	0.021347838	5.38E-05	2.31E-05	0.80655231	0.10539671	441064.54
0.000306749	0.50732623	495.59774	550385.93	2271.9682	0.81777688	0.003399036	0.005174161	0.018319052	0.039547473	0.021401263	5.34E-05	2.30E-05	0.80655231	0.10553024	436996.07
0.000308284	0.50798792	496.49707	550021.44	2275.074	0.8162956	0.00339086	0.005164915	0.018316649	0.039387336	0.02145352	5.31E-05	2.28E-05	0.80655231	0.10565842	432989.12
0.000309819	0.50864421	497.38898	549659.96	2278.1497	0.81483182	0.003382656	0.005156324	0.018312479	0.039234455	0.021504655	5.28E-05	2.27E-05	0.80655231	0.1057816	429043.08
0.000311353	0.50929519	498.27359	549301.44	2281.1959	0.81338522	0.003374432	0.005148339	0.018306661	0.039088384	0.02155471	5.25E-05	2.25E-05	0.80655231	0.1059001	425157.28
0.000312888	0.50994092	499.15099	548945.84	2284.2129	0.81195547	0.003366196	0.005140918	0.018299312	0.038948706	0.021603728	5.22E-05	2.24E-05	0.80655231	0.10601422	421330.99
0.000314423	0.5105815	500.02129	548593.12	2287.2011	0.81054224	0.003357955	0.005134021	0.01829054	0.038815028	0.021651746	5.19E-05	2.22E-05	0.80655231	0.10612423	417563.45
0.000315957	0.51121699	500.88459	548243.23	2290.1611	0.80914522	0.003349716	0.005127608	0.018280445	0.038686984	0.021698801	5.16E-05	2.21E-05	0.80655231	0.10623039	413853.85
0.000317492	0.51184747	501.741	547896.14	2293.0932	0.80776412	0.003341485	0.005121646	0.018269126	0.038564227	0.02174493	5.13E-05	2.19E-05	0.80655231	0.10633295	410201.35
0.000319027	0.51247301	502.59061	547551.8	2295.998	0.80639861	0.003333267	0.005116101	0.018256671	0.038446437	0.021790164	5.11E-05	2.18E-05	0.80655231	0.10643214	406605.1
0.000320561	0.51309369	503.43353	547210.17	2298.8757	0.80504843	0.003325066	0.005110944	0.018243165	0.03833331	0.021834536	5.08E-05	2.16E-05	0.80655231	0.10652816	403064.22
0.000322096	0.51370957	504.26986	546871.22	2301.7269	0.80371326	0.003316888	0.005106145	0.018228688	0.038224564	0.021878075	5.06E-05	2.15E-05	0.80655231	0.10662121	399577.82
0.000323631	0.51432074	505.09968	546534.9	2304.5519	0.80239285	0.003308735	0.005101679	0.018213315	0.038119933	0.021920811	5.03E-05	2.14E-05	0.80655231	0.10671149	396145.01
0.000325165	0.51492725	505.9231	546201.18	2307.3511	0.8010869	0.003300612	0.005097521	0.018197116	0.03801917	0.02196277	5.01E-05	2.12E-05	0.80655231	0.10679915	392764.88
0.0003267	0.51552919	506.74021	545870.01	2310.125	0.79979516	0.003292522	0.005093648	0.018180155	0.037922042	0.022003978	4.98E-05	2.11E-05	0.80655231	0.10688436	389436.54
0.000328235	0.5161266	507.55111	545541.37	2312.8739	0.79851736	0.003284468	0.005090041	0.018162495	0.037828332	0.022044461	4.96E-05	2.09E-05	0.80655231	0.10696728	386159.06
0.000329769	0.51671957	508.35587	545215.2	2315.5983	0.79725325	0.003276451	0.005086678	0.018144193	0.037737836	0.022084241	4.94E-05	2.08E-05	0.80655231	0.10704804	382931.55
0.000331304	0.51730816	509.1546	544891.49	2318.2984	0.79600257	0.003268475	0.005083542	0.018125301	0.037650364	0.022123342	4.92E-05	2.07E-05	0.80655231	0.10712676	379753.12
0.000332839	0.51789243	509.94738	544570.19	2320.9748	0.79476508	0.003260541	0.005080615	0.018105871	0.037565739	0.022161784	4.90E-05	2.05E-05	0.80655231	0.10720358	376622.86
0.000334373	0.51847244	510.73429	544251.26	2323.6276	0.79354055	0.003252651	0.005077883	0.018085949	0.037483793	0.022199588	4.88E-05	2.04E-05	0.80655231	0.10727861	373539.9
0.000335908	0.51904826	511.51543	543934.67	2326.2574	0.79232874	0.003244807	0.005075331	0.018065578	0.037404372	0.022236775	4.86E-05	2.03E-05	0.80655231	0.10735194	370503.37
0.000338977	0.52018756	513.06069	543308.4	2331.449	0.78994236	0.003229261	0.005070712	0.018023652	0.037252527	0.022309368	4.82E-05	2.00E-05	0.80655231	0.10749393	364566.1
0.00034174	0.52119918	514.43248	542752.43	2336.0458	0.78783589	0.003215438	0.005067045	0.017984766	0.037123133	0.022372768	4.78E-05	1.98E-05	0.80655231	0.10761687	359372.76
0.000344502	0.52219814	515.7868	542203.54	2340.5731	0.78576724	0.00320178	0.005063776	0.017944981	0.036999917	0.022434435	4.75E-05	1.96E-05	0.80655231	0.10773569	354316.7
0.000347265	0.52318474	517.12409	541661.55	2345.0327	0.78373524	0.003188289	0.005060854	0.017904462	0.036882278	0.022494455	4.72E-05	1.94E-05	0.80655231	0.10785078	349393.25
0.000350027	0.5241593	518.44477	541126.29	2349.4263	0.78173876	0.003174968	0.005058231	0.017863353	0.036769681	0.022552909	4.69E-05	1.91E-05	0.80655231	0.10796249	344597.87
0.000352789	0.52512213	519.74926	540597.6	2353.7558	0.77977672	0.003161819	0.005055867	0.017821781	0.036661654	0.022609873	4.66E-05	1.89E-05	0.80655231	0.10807115	339926.17
0.000355552	0.52607351	521.03796	540075.3	2358.0228	0.77784807	0.003148842	0.005053726	0.017779855	0.036557776	0.022665417	4.63E-05	1.87E-05	0.80655231	0.10817703	335373.9
0.000358314	0.52701372	522.31126	539559.25	2362.2289	0.77595181	0.003136036	0.005051777	0.017737671	0.036457674	0.022719604	4.60E-05	1.85E-05	0.80655231	0.10828037	330936.96
0.000361076	0.52794305	523.56954	539049.28	2366.3757	0.774087	0.003123402	0.005049992	0.017695315	0.036361015	0.022772495	4.57E-05	1.83E-05	0.80655231	0.10838138	326611.4
0.000363839	0.52886175	524.81314	538545.27	2370.4646	0.77225272	0.003110939	0.005048349	0.017652858	0.036267505	0.022824147	4.54E-05	1.81E-05	0.80655231	0.10848027	322393.4
0.000366601	0.52977008	526.04243	538047.05	2374.4972	0.77044807	0.003098644	0.005046826	0.017610364	0.03617688	0.022874612	4.52E-05	1.80E-05	0.80655231	0.10857719	318279.3
0.000369364	0.53066828	527.25773	537554.5	2378.4749	0.76867222	0.003086516	0.005045407	0.017567888	0.036088906	0.022923939	4.49E-05	1.78E-05	0.80655231	0.1086723	314265.57
0.000372126	0.53155659	528.45939	537067.48	2382.399	0.76692435	0.003074553	0.005044074	0.017525478	0.036003374	0.022972173	4.47E-05	1.76E-05	0.80655231	0.10876574	310348.8
0.000374888	0.53243525	529.64771	536585.87	2386.2709	0.76520367	0.003062752	0.005042815	0.017483174	0.035920099	0.023019357	4.44E-05	1.74E-05	0.80655231	0.10885762	306525.73
0.000377651	0.53330447	530.82301	536109.54	2390.0917	0.76350943	0.003051111	0.005041618	0.017441012	0.035838912	0.023065532	4.42E-05	1.72E-05	0.80655231	0.10894804	302793.21
0.000380413	0.53416447	531.98557	535638.36	2393.8628	0.76184092	0.003039628	0.005040472	0.017399022	0.035759665	0.023110734	4.39E-05	1.71E-05	0.80655231	0.10903711	299148.22
0.000383176	0.53501546	533.13568	535172.24	2397.5853	0.76019743	0.0030283	0.00503937	0.017357229	0.035682225	0.023155	4.37E-05	1.69E-05	0.80655231	0.1091249	295587.87
0.000385938	0.53585764	534.27363	534711.04	2401.2604	0.75857828	0.003017124	0.005038302	0.017315656	0.035606471	0.023198363	4.35E-05	1.67E-05	0.80655231	0.1092115	292109.36
0.0003887	0.53669121	535.39968	534254.67	2404.8892	0.75698285	0.003006098	0.005037263	0.017274322	0.035532296	0.023240854	4.33E-05	1.66E-05	0.80655231	0.10929696	288710.02
0.000391463	0.53751635	536.51408	533803.01	2408.4727	0.7554105	0.002995218	0.005036246	0.01723324	0.035459602	0.023282503	4.31E-05	1.64E-05	0.80655231	0.10938136	285387.26
0.000394225	0.53833325	537.61711	533355.97	2412.012	0.75386064	0.002984482	0.005035247	0.017192426	0.035388302	0.023323337	4.28E-05	1.63E-05	0.80655231	0.10946474	282138.61
0.000396988	0.53914208	538.70898	532913.44	2415.508	0.75233268	0.002973887	0.005034262	0.017151888	0.035318317	0.023363382	4.26E-05	1.61E-05	0.80655231	0.10954716	278961.7
0.00039975	0.53994302	539.78995	532475.34	2418.9619	0.75082607	0.00296343	0.005033286	0.017111636	0.035249576	0.023402665	4.24E-05	1.60E-05	0.80655231	0.10962865	275854.25
0.000402512	0.54073624	540.86025	532041.56	2422.3744	0.74934029	0.002953109	0.005032317	0.017071677	0.035182013	0.023441209	4.22E-05	1.58E-05	0.80655231	0.10970927	272814.05
0.000405275	0.54152189	541.92009	531612.02	2425.7465	0.74787479	0.00294292	0.005031352	0.017032017	0.03511557	0.023479035	4.20E-05	1.57E-05	0.80655231	0.10978904	269839
0.000408037	0.54230013	542.96968	531186.63	2429.0792	0.7464291	0.002932861	0.005030388	0.016992658	0.035050193	0.023516166	4.18E-05	1.55E-05	0.80655231	0.109868	266927.08
0.0004108	0.54307111	544.00925	530765.31	2432.3731	0.74500272	0.00292293	0.005029425	0.016953605	0.034985833	0.023552621	4.17E-05	1.54E-05	0.80655231	0.10994618	264076.33
0.000413562	0.54383498	545.03899	530347.97	2435.6293	0.7435952	0.002913123	0.005028459	0.01691486	0.034922445	0.023588421	4.15E-05	1.53E-05	0.80655231	0.11002361	261284.87
0.000416324	0.54459188	546.05909	529934.53	2438.8484	0.74220607	0.002903439	0.00502749	0.016876423	0.034859989	0.023623583	4.13E-05	1.51E-05	0.80655231	0.11010031	258550.91
0.000419087	0.54534195	547.06975	529524.92	2442.0312	0.74083491	0.002893874	0.005026517	0.016838295	0.034798426	0.023658126	4.11E-05	1.50E-05	0.80655231	0.1101763	255872.72
0.000421849	0.54608533	548.07116	529119.06	2445.1785	0.7394813	0.002884427	0.005025538	0.016800475	0.034737723	0.023692065	4.09E-05	1.49E-05	0.80655231	0.11025162	253248.63
0.000427374	0.54755251	550.04692	528318.31	2451.3696	0.7368251	0.002865874	0.005023561	0.01672576	0.034618766	0.023758198	4.06E-05	1.46E-05	0.80655231	0.11040028	248156.37
0.000432346	0.54885134	551.79519	527609.76	2456.8272	0.73449059	0.002849553	0.005021757	0.016659561	0.034514345	0.02381581	4.03E-05	1.44E-05	0.80655231	0.11053193	243742.89
0.000437318	0.5501304	553.51611	526912.29	2462.1805	0.732207	0.002833577	0.005019927	0.016594338	0.034412275	0.023871698	4.00E-05	1.42E-05	0.80655231	0.11066165	239481.49
0.000442291	0.55139032	555.21059	526225.53	2467.4331	0.72997234	0.002817932	0.005018071	0.016530078	0.034312426	0.023925939	3.97E-05	1.40E-05	0.80655231	0.1107895	235364.47
0.000447263	0.55263175	556.87948	525549.15	2472.5885	0.72778471	0.002802607	0.005016187	0.016466764	0.034214685	0.023978604	3.94E-05	1.38E-05	0.80655231	0.11091558	231384.67
0.000452235	0.55385526	558.52361	524882.81	2477.65	0.72564233	0.00278759	0.005014276	0.016404377	0.034118949	0.024029757	3.92E-05	1.36E-05	0.80655231	0.11103994	227535.35
0.000457208	0.55506143	560.14374	524226.19	2482.6208	0.72354352	0.002772871	0.005012337	0.0163429	0.034025127	0.024079461	3.89E-05	1.34E-05	0.80655231	0.11116264	223810.2
0.00046218	0.55625079	561.74062	523578.99	2487.5036	0.72148668	0.00275844	0.005010373	0.016282313	0.033933134	0.024127774	3.86E-05	1.32E-05	0.80655231	0.11128374	220203.32
0.000467152	0.55742384	563.31495	522940.93	2492.3015	0.71947029	0.002744286	0.005008383	0.016222597	0.033842893	0.024174751	3.84E-05	1.31E-05	0.80655231	0.11140329	216709.16
0.000472125	0.55858109	564.86742	522311.73	2497.0171	0.71749292	0.002730401	0.005006368	0.016163731	0.033754335	0.024220442	3.81E-05	1.29E-05	0.80655231	0.11152133	213322.5
0.000477097	0.55972299	566.39866	521691.14	2501.653	0.71555319	0.002716775	0.00500433	0.016105697	0.033667394	0.024264897	3.79E-05	1.27E-05	0.80655231	0.11163792	210038.46
0.000482069	0.56084999	567.9093	521078.89	2506.2117	0.71364983	0.002703399	0.00500227	0.016048475	0.033582009	0.024308162	3.77E-05	1.26E-05	0.80655231	0.11175309	206852.42
0.000487042	0.56196251	569.39991	520474.76	2510.6954	0.71178159	0.002690267	0.005000189	0.015992046	0.033498125	0.02435028	3.75E-05	1.24E-05	0.80655231	0.11186688	203760.05
0.000492014	0.56306098	570.87107	519878.52	2515.1064	0.70994729	0.00267737	0.004998089	0.015936391	0.03341569	0.024391292	3.72E-05	1.23E-05	0.80655231	0.11197933	200757.26
0.000496986	0.56414576	572.32331	519289.94	2519.4469	0.70814584	0.0026647	0.004995969	0.015881493	0.033334653	0.024431238	3.70E-05	1.21E-05	0.80655231	0.11209047	197840.19
0.000501958	0.56521725	573.75716	518708.82	2523.7189	0.70637615	0.002652251	0.004993833	0.015827333	0.033254968	0.024470154	3.68E-05	1.20E-05	0.80655231	0.11220034	195005.22
0.000506931	0.56627579	575.1731	518134.96	2527.9244	0.70463722	0.002640015	0.00499168	0.015773895	0.033176592	0.024508077	3.66E-05	1.18E-05	0.80655231	0.11230897	192248.9
0.000511903	0.56732173	576.57161	517568.16	2532.0653	0.70292808	0.002627987	0.004989511	0.015721161	0.033099482	0.024545039	3.64E-05	1.17E-05	0.80655231	0.11241639	189567.99
0.000516875	0.56835541	577.95315	517008.24	2536.1432	0.7012478	0.00261616	0.004987329	0.015669115	0.0330236	0.024581074	3.62E-05	1.16E-05	0.80655231	0.11252262	186959.42
0.000521848	0.56937713	579.31815	516455.02	2540.1601	0.6995955	0.002604528	0.004985134	0.015617742	0.032948909	0.024616211	3.60E-05	1.14E-05	0.80655231	0.1126277	184420.28
0.00052682	0.5703872	580.66705	515908.33	2544.1175	0.69797033	0.002593086	0.004982926	0.015567025	0.032875373	0.02465048	3.58E-05	1.13E-05	0.80655231	0.11273164	181947.82
0.000531792	0.57138592	582.00024	515368	2548.0171	0.69637149	0.002581828	0.004980707	0.01551695	0.032802957	0.024683909	3.56E-05	1.12E-05	0.80655231	0.11283449	179539.42
0.000536765	0.57237357	583.31811	514833.88	2551.8603	0.69479821	0.002570749	0.004978478	0.015467503	0.032731631	0.024716524	3.55E-05	1.11E-05	0.80655231	0.11293626	177192.62
0.000546709	0.5743167	585.90938	513783.67	2559.3835	0.69172536	0.002549107	0.004973993	0.015370435	0.032592122	0.024779416	3.51E-05	1.08E-05	0.80655231	0.11313665	172674.52
0.000555659	0.57603027	588.19276	512858.24	2565.9759	0.68904006	0.002530193	0.004969929	0.015285083	0.032469992	0.024833482	3.48E-05	1.06E-05	0.80655231	0.11331355	168796.5
0.000564609	0.57771188	590.43193	511950.73	2572.4069	0.68642692	0.002511787	0.004965843	0.015201559	0.032350949	0.024885279	3.45E-05	1.04E-05	0.80655231	0.1134873	165084.86
0.00057356	0.57936283	592.62872	511060.4	2578.6837	0.68388244	0.002493864	0.00496174	0.015119793	0.032234847	0.024934927	3.42E-05	1.02E-05	0.80655231	0.11365801	161529.02
0.00058251	0.58098436	594.7848	510186.56	2584.8128	0.68140338	0.002476403	0.004957623	0.01503972	0.032121553	0.024982536	3.40E-05	1.01E-05	0.80655231	0.11382579	158119.3
0.00059146	0.5825776	596.90178	509328.58	2590.8003	0.6789867	0.002459383	0.004953495	0.014961276	0.032010943	0.02502821	3.37E-05	9.90E-06	0.80655231	0.11399075	154846.79
0.00060041	0.58414364	598.98115	508485.83	2596.6521	0.67662959	0.002442785	0.004949358	0.014884404	0.031902898	0.025072047	3.35E-05	9.73E-06	0.80655231	0.11415299	151703.33
0.00060936	0.5856835	601.02433	507657.76	2602.3736	0.6743294	0.00242659	0.004945216	0.014809047	0.031797309	0.025114135	3.32E-05	9.57E-06	0.80655231	0.11431258	148681.34
0.00061831	0.58719814	603.03264	506843.81	2607.97	0.67208365	0.002410782	0.004941072	0.014735152	0.031694075	0.02515456	3.30E-05	9.42E-06	0.80655231	0.11446963	145773.86
0.000627261	0.58868847	605.00734	506043.49	2613.446	0.66989001	0.002395344	0.004936926	0.014662669	0.031593097	0.025193399	3.27E-05	9.27E-06	0.80655231	0.11462421	142974.45
0.000636211	0.59015535	606.94962	505256.3	2618.8062	0.66774632	0.002380261	0.00493278	0.01459155	0.031494287	0.025230729	3.25E-05	9.13E-06	0.80655231	0.1147764	140277.13
0.000645161	0.59159958	608.86061	504481.8	2624.0551	0.66565051	0.00236552	0.004928638	0.014521749	0.031397558	0.025266616	3.23E-05	8.99E-06	0.80655231	0.11492628	137676.36
0.000654111	0.59302193	610.74137	503719.55	2629.1965	0.66360066	0.002351106	0.0049245	0.014453224	0.03130283	0.025301128	3.21E-05	8.86E-06	0.80655231	0.11507391	135167.01
0.000663061	0.59442314	612.59291	502969.15	2634.2343	0.66159495	0.002337008	0.004920368	0.014385934	0.031210027	0.025334325	3.19E-05	8.73E-06	0.80655231	0.11521937	132744.28
0.000672011	0.5958039	614.41619	502230.19	2639.1723	0.65963167	0.002323214	0.004916242	0.014319838	0.031119079	0.025366265	3.17E-05	8.61E-06	0.80655231	0.11536271	130403.72
0.000680961	0.59716486	616.21212	501502.32	2644.0139	0.65770919	0.002309711	0.004912125	0.0142549	0.031029916	0.025397002	3.15E-05	8.49E-06	0.80655231	0.11550401	128141.18
0.000689912	0.59850664	617.98157	500785.18	2648.7624	0.65582599	0.00229649	0.004908018	0.014191084	0.030942475	0.025426588	3.13E-05	8.37E-06	0.80655231	0.11564331	125952.77
0.000698862	0.59982985	619.72536	500078.45	2653.4208	0.65398062	0.00228354	0.004903921	0.014128356	0.030856695	0.025455071	3.12E-05	8.26E-06	0.80655231	0.11578067	123834.88
0.000707812	0.60113505	621.44428	499381.79	2657.9922	0.6521717	0.002270852	0.004899835	0.014066683	0.030772518	0.025482498	3.10E-05	8.15E-06	0.80655231	0.11591615	121784.12
0.000716762	0.60242277	623.13908	498694.9	2662.4793	0.65039794	0.002258416	0.004895761	0.014006035	0.03068989	0.025508911	3.08E-05	8.04E-06	0.80655231	0.1160498	119797.29
0.000725712	0.60369354	624.81047	498017.51	2666.885	0.6486581	0.002246225	0.0048917	0.013946381	0.030608759	0.025534351	3.07E-05	7.94E-06	0.80655231	0.11618166	117871.43
0.000734662	0.60494785	626.45914	497349.32	2671.2117	0.64695101	0.002234269	0.004887652	0.013887692	0.030529076	0.025558858	3.05E-05	7.84E-06	0.80655231	0.11631179	116003.74
0.000743612	0.60618616	628.08573	496690.09	2675.4618	0.64527557	0.002222542	0.004883619	0.013829942	0.030450792	0.025582468	3.03E-05	7.74E-06	0.80655231	0.11644022	114191.59
0.000752563	0.60740892	629.69087	496039.54	2679.6378	0.6436307	0.002211035	0.0048796	0.013773105	0.030373865	0.025605216	3.02E-05	7.65E-06	0.80655231	0.11656701	112432.51
0.000761513	0.60861657	631.27515	495397.45	2683.7418	0.64201541	0.002199741	0.004875597	0.013717154	0.03029825	0.025627136	3.00E-05	7.56E-06	0.80655231	0.11669219	110724.17
0.000770463	0.60980952	632.83915	494763.58	2687.776	0.64042874	0.002188654	0.004871609	0.013662067	0.030223908	0.025648258	2.99E-05	7.47E-06	0.80655231	0.1168158	109064.38
0.000779413	0.61098815	634.38341	494137.71	2691.7423	0.63886976	0.002177767	0.004867637	0.01360782	0.030150799	0.025668613	2.98E-05	7.38E-06	0.80655231	0.11693789	107451.07
0.000788363	0.61215285	635.90845	493519.63	2695.6429	0.63733761	0.002167074	0.004863682	0.01355439	0.030078886	0.02568823	2.96E-05	7.30E-06	0.80655231	0.11705848	105882.3
0.000797313	0.61330399	637.41478	492909.13	2699.4795	0.63583146	0.00215657	0.004859744	0.013501757	0.030008134	0.025707136	2.95E-05	7.22E-06	0.80655231	0.11717762	104356.22
0.000806263	0.61444189	638.90289	492306.02	2703.2539	0.63435051	0.002146248	0.004855822	0.013449899	0.029938509	0.025725356	2.94E-05	7.14E-06	0.80655231	0.11729533	102871.08
0.000815214	0.61556692	640.37323	491710.1	2706.9679	0.632894	0.002136103	0.004851918	0.013398797	0.029869979	0.025742916	2.92E-05	7.06E-06	0.80655231	0.11741166	101425.24
0.000824164	0.61667937	641.82625	491121.21	2710.623	0.6314612	0.00212613	0.004848031	0.013348433	0.029802511	0.025759839	2.91E-05	6.98E-06	0.80655231	0.11752662	100017.14
0.000833114	0.61777956	643.26238	490539.17	2714.2209	0.63005142	0.002116324	0.004844162	0.013298787	0.029736078	0.025776146	2.90E-05	6.91E-06	0.80655231	0.11764026	98645.299
0.000842064	0.6188678	644.68202	489963.8	2717.7631	0.62866399	0.00210668	0.004840311	0.013249842	0.02967065	0.025791861	2.89E-05	6.84E-06	0.80655231	0.11775261	97308.312
0.000851014	0.61994435	646.08559	489394.95	2721.251	0.62729828	0.002097194	0.004836478	0.013201581	0.029606199	0.025807004	2.88E-05	6.77E-06	0.80655231	0.11786368	96004.85
0.000859964	0.62100951	647.47344	488832.47	2724.6861	0.62595366	0.002087862	0.004832664	0.013153987	0.0295427	0.025821593	2.87E-05	6.70E-06	0.80655231	0.11797351	94733.649
0.000868915	0.62206352	648.84597	488276.2	2728.0697	0.62462956	0.002078678	0.004828867	0.013107045	0.029480127	0.025835648	2.86E-05	6.63E-06	0.80655231	0.11808212	93493.508
0.000877865	0.62310666	650.20351	487726.01	2731.4031	0.62332542	0.00206964	0.004825089	0.01306074	0.029418456	0.025849187	2.84E-05	6.57E-06	0.80655231	0.11818955	92283.286
0.000895765	0.62516126	652.87501	486643.28	2737.9242	0.62077483	0.002051983	0.004817589	0.012969979	0.029297727	0.025874784	2.82E-05	6.44E-06	0.80655231	0.11840093	89948.308
0.000911875	0.62697557	655.23143	485688.25	2743.6336	0.61854233	0.002036552	0.004810902	0.012890328	0.029191931	0.025896221	2.81E-05	6.33E-06	0.80655231	0.11858734	87938.785
0.000927985	0.6287582	657.54427	484750.88	2749.1984	0.61636668	0.002021534	0.004804276	0.012812524	0.02908872	0.025916233	2.79E-05	6.23E-06	0.80655231	0.11877026	86010.793
0.000944096	0.63051035	659.8152	483830.5	2754.6248	0.61424529	0.002006913	0.00479771	0.012736495	0.028987983	0.0259349	2.77E-05	6.12E-06	0.80655231	0.1189498	84159.392
0.000960206	0.63223314	662.04578	482926.47	2759.9184	0.61217576	0.00199267	0.004791205	0.012662172	0.028889615	0.025952298	2.76E-05	6.03E-06	0.80655231	0.1191261	82380.037
0.000976316	0.63392764	664.23748	482038.2	2765.0845	0.61015583	0.001978789	0.004784761	0.012589491	0.028793518	0.025968496	2.74E-05	5.94E-06	0.80655231	0.11929924	80668.536
0.000992427	0.63559485	666.3917	481165.12	2770.1281	0.60818341	0.001965256	0.004778376	0.012518392	0.028699601	0.025983559	2.73E-05	5.85E-06	0.80655231	0.11946935	79021.019
0.001008537	0.63723571	668.50975	480306.7	2775.054	0.60625649	0.001952055	0.004772052	0.012448816	0.028607775	0.025997549	2.72E-05	5.76E-06	0.80655231	0.11963651	77433.906
0.001024647	0.63885112	670.59287	479462.44	2779.8666	0.60437323	0.001939173	0.004765787	0.01238071	0.02851796	0.026010522	2.70E-05	5.68E-06	0.80655231	0.11980082	75903.881
0.001040757	0.64044194	672.64223	478631.85	2784.5702	0.60253186	0.001926598	0.004759582	0.012314022	0.028430079	0.026022532	2.69E-05	5.60E-06	0.80655231	0.11996237	74427.868
0.001056868	0.64200895	674.65896	477814.5	2789.1688	0.60073074	0.001914318	0.004753435	0.012248703	0.028344059	0.026033628	2.68E-05	5.52E-06	0.80655231	0.12012124	73003.008
0.001072978	0.64355293	676.6441	477009.94	2793.666	0.59896831	0.00190232	0.004747347	0.012184706	0.028259832	0.026043857	2.67E-05	5.44E-06	0.80655231	0.12027751	71626.644
0.001089088	0.64507459	678.59867	476217.78	2798.0656	0.5972431	0.001890596	0.004741317	0.012121987	0.028177333	0.026053264	2.65E-05	5.37E-06	0.80655231	0.12043127	70296.3
0.001105198	0.64657463	680.52361	475437.62	2802.3709	0.59555373	0.001879134	0.004735344	0.012060504	0.028096501	0.026061889	2.64E-05	5.30E-06	0.80655231	0.12058257	69009.667
0.001121309	0.6480537	682.41985	474669.1	2806.5851	0.59389887	0.001867924	0.004729428	0.012000218	0.028017277	0.026069771	2.63E-05	5.23E-06	0.80655231	0.1207315	67764.59
0.001137419	0.64951241	684.28823	473911.87	2810.7113	0.59227729	0.001856959	0.004723569	0.011941089	0.027939607	0.026076947	2.62E-05	5.17E-06	0.80655231	0.12087812	66559.053
0.001153529	0.65095138	686.12958	473165.59	2814.7524	0.59068781	0.001846228	0.004717765	0.011883081	0.027863437	0.026083451	2.61E-05	5.10E-06	0.80655231	0.12102249	65391.17
0.00116964	0.65237116	687.9447	472429.94	2818.7111	0.5891293	0.001835725	0.004712017	0.011826161	0.027788719	0.026089316	2.60E-05	5.04E-06	0.80655231	0.12116467	64259.175
0.00118575	0.65377229	689.73432	471704.63	2822.5902	0.58760071	0.001825441	0.004706323	0.011770293	0.027715405	0.026094572	2.59E-05	4.98E-06	0.80655231	0.12130473	63161.412
0.00120186	0.65515528	691.49917	470989.36	2826.3921	0.58610103	0.001815369	0.004700684	0.011715448	0.02764345	0.026099248	2.58E-05	4.92E-06	0.80655231	0.12144271	62096.325
0.00121797	0.65652064	693.23993	470283.84	2830.1192	0.5846293	0.001805502	0.004695098	0.011661594	0.027572811	0.026103372	2.58E-05	4.87E-06	0.80655231	0.12157868	61062.451
0.001234081	0.65786884	694.95726	469587.83	2833.7739	0.58318461	0.001795833	0.004689565	0.011608703	0.027503448	0.026106968	2.57E-05	4.81E-06	0.80655231	0.12171267	60058.417
0.001250191	0.65920032	696.65178	468901.06	2837.3583	0.58176608	0.001786355	0.004684085	0.011556747	0.02743532	0.026110063	2.56E-05	4.76E-06	0.80655231	0.12184476	59082.929
0.001266301	0.66051552	698.3241	468223.29	2840.8745	0.58037289	0.001777064	0.004678656	0.011505699	0.027368392	0.026112678	2.55E-05	4.71E-06	0.80655231	0.12197497	58134.765
0.001282411	0.66181485	699.97478	467554.29	2844.3245	0.57900425	0.001767952	0.004673278	0.011455534	0.027302627	0.026114837	2.54E-05	4.66E-06	0.80655231	0.12210336	57212.776
0.001298522	0.66309872	701.60439	466893.83	2847.7102	0.57765941	0.001759014	0.004667951	0.011406226	0.027237991	0.026116559	2.54E-05	4.61E-06	0.80655231	0.12222997	56315.877
0.001314632	0.6643675	703.21345	466241.7	2851.0335	0.57633764	0.001750246	0.004662674	0.011357754	0.027174452	0.026117865	2.53E-05	4.56E-06	0.80655231	0.12235484	55443.04
0.001330742	0.66562156	704.80247	465597.68	2854.2962	0.57503825	0.001741641	0.004657447	0.011310094	0.027111979	0.026118773	2.52E-05	4.51E-06	0.80655231	0.12247801	54593.296
0.001346852	0.66686125	706.37194	464961.6	2857.4999	0.57376059	0.001733196	0.004652268	0.011263224	0.027050542	0.026119301	2.52E-05	4.47E-06	0.80655231	0.12259953	53765.727
0.001362963	0.66808692	707.92233	464333.24	2860.6462	0.57250402	0.001724904	0.004647137	0.011217124	0.026990112	0.026119466	2.51E-05	4.42E-06	0.80655231	0.12271942	52959.463
0.001379073	0.66929888	709.45409	463712.44	2863.7368	0.57126794	0.001716763	0.004642054	0.011171773	0.026930662	0.026119284	2.50E-05	4.38E-06	0.80655231	0.12283774	52173.681
0.001395183	0.67049746	710.96766	463099	2866.773	0.57005178	0.001708768	0.004637019	0.011127153	0.026872165	0.026118771	2.50E-05	4.34E-06	0.80655231	0.1229545	51407.6
0.001411294	0.67168295	712.46346	462492.77	2869.7564	0.56885497	0.001700914	0.004632029	0.011083244	0.026814596	0.026117942	2.49E-05	4.30E-06	0.80655231	0.12306975	50660.477
0.001427404	0.67285564	713.94188	461893.58	2872.6884	0.56767699	0.001693197	0.004627086	0.01104003	0.026757932	0.026116809	2.48E-05	4.26E-06	0.80655231	0.12318352	49931.609
0.001443514	0.67401582	715.40333	461301.28	2875.5702	0.56651732	0.001685615	0.004622188	0.010997492	0.026702148	0.026115387	2.48E-05	4.22E-06	0.80655231	0.12329584	49220.327
0.001459624	0.67516376	716.84818	460715.7	2878.4031	0.56537547	0.001678162	0.004617335	0.010955614	0.026647222	0.026113687	2.47E-05	4.18E-06	0.80655231	0.12340674	48525.994
0.001491845	0.67742395	719.68949	459564.15	2883.9273	0.56314339	0.001663634	0.004607762	0.010873774	0.026539859	0.026109506	2.46E-05	4.11E-06	0.80655231	0.12362441	47185.781
0.001520843	0.67941877	722.1934	458549.34	2888.744	0.56119092	0.00165097	0.004599294	0.010802221	0.026445959	0.026104911	2.45E-05	4.04E-06	0.80655231	0.12381574	46031.776
0.001549842	0.68137772	724.64878	457554.21	2893.4203	0.5592894	0.001638678	0.004590963	0.010732572	0.026354526	0.02609959	2.45E-05	3.98E-06	0.80655231	0.12400292	44924.093
0.00157884	0.68330208	727.0574	456578.02	2897.9622	0.55743656	0.00162674	0.004582766	0.010664751	0.026265456	0.0260936	2.44E-05	3.93E-06	0.80655231	0.12418607	43859.974
0.001607839	0.68519306	729.42094	455620.1	2902.3753	0.5556303	0.001615141	0.004574701	0.010598683	0.026178652	0.026086992	2.43E-05	3.87E-06	0.80655231	0.12436535	42836.881
0.001636837	0.68705178	731.74096	454679.82	2906.665	0.55386865	0.001603866	0.004566765	0.010534299	0.026094022	0.026079812	2.42E-05	3.82E-06	0.80655231	0.12454088	41852.474
0.001665836	0.68887932	734.01896	453756.58	2910.8361	0.55214974	0.001592902	0.004558954	0.010471534	0.026011479	0.026072105	2.41E-05	3.77E-06	0.80655231	0.1247128	40904.587
0.001694834	0.69067669	736.25634	452849.8	2914.8934	0.55047184	0.001582235	0.004551266	0.010410326	0.025930943	0.026063912	2.41E-05	3.72E-06	0.80655231	0.12488121	39991.22
0.001723833	0.69244486	738.45442	451958.94	2918.8414	0.5488333	0.001571853	0.004543699	0.010350616	0.025852336	0.02605527	2.40E-05	3.67E-06	0.80655231	0.12504623	39110.517
0.001752831	0.69418473	740.61449	451083.49	2922.6841	0.54723258	0.001561744	0.00453625	0.01029235	0.025775586	0.026046214	2.39E-05	3.62E-06	0.80655231	0.12520797	38260.755
0.00178183	0.69589717	742.73772	450222.97	2926.4257	0.54566823	0.001551899	0.004528917	0.010235473	0.025700625	0.026036777	2.39E-05	3.58E-06	0.80655231	0.12536653	37440.334
0.001810828	0.69758301	744.82527	449376.91	2930.0698	0.54413887	0.001542305	0.004521696	0.010179937	0.025627388	0.026026988	2.38E-05	3.53E-06	0.80655231	0.125522	36647.764
0.001839827	0.69924302	746.87822	448544.87	2933.6199	0.54264319	0.001532955	0.004514587	0.010125695	0.025555814	0.026016876	2.38E-05	3.49E-06	0.80655231	0.12567449	35881.656
0.001868825	0.70087796	748.89759	447726.44	2937.0796	0.54117997	0.001523838	0.004507586	0.0100727	0.025485843	0.026006468	2.37E-05	3.45E-06	0.80655231	0.12582407	35140.713
0.001897824	0.70248852	750.88438	446921.22	2940.452	0.53974804	0.001514946	0.004500691	0.010020912	0.025417422	0.025995786	2.37E-05	3.41E-06	0.80655231	0.12597084	34423.725
0.001926822	0.70407539	752.83952	446128.82	2943.7401	0.53834631	0.001506271	0.004493901	0.009970288	0.025350496	0.025984855	2.36E-05	3.38E-06	0.80655231	0.12611487	33729.559
0.00195582	0.70563922	754.76391	445348.89	2946.9469	0.53697371	0.001497804	0.004487212	0.00992079	0.025285018	0.025973695	2.36E-05	3.34E-06	0.80655231	0.12625625	33057.155
0.001984819	0.70718062	756.6584	444581.08	2950.0751	0.53562926	0.001489539	0.004480624	0.009872381	0.025220938	0.025962326	2.35E-05	3.30E-06	0.80655231	0.12639504	32405.517
0.002013817	0.70870018	758.5238	443825.05	2953.1274	0.53431201	0.001481468	0.004474133	0.009825026	0.025158212	0.025950766	2.35E-05	3.27E-06	0.80655231	0.12653132	31773.711
0.002042816	0.71019848	760.36091	443080.49	2956.1062	0.53302106	0.001473585	0.004467739	0.009778691	0.025096796	0.025939034	2.34E-05	3.24E-06	0.80655231	0.12666516	31160.861
0.002071814	0.71167605	762.17047	442347.1	2959.0141	0.53175555	0.001465882	0.004461438	0.009733344	0.02503665	0.025927144	2.34E-05	3.21E-06	0.80655231	0.12679662	30566.14
0.002100813	0.71313341	763.95321	441624.58	2961.8532	0.53051466	0.001458355	0.00445523	0.009688953	0.024977734	0.025915112	2.34E-05	3.17E-06	0.80655231	0.12692576	29988.773
0.002129811	0.71457106	765.7098	440912.65	2964.6259	0.52929763	0.001450997	0.004449113	0.009645491	0.024920009	0.025902953	2.33E-05	3.14E-06	0.80655231	0.12705265	29428.027
0.00215881	0.71598948	767.44091	440211.05	2967.3341	0.52810369	0.001443802	0.004443084	0.009602927	0.024863441	0.025890679	2.33E-05	3.11E-06	0.80655231	0.12717735	28883.21
0.002187808	0.71738913	769.14718	439519.52	2969.9799	0.52693215	0.001436766	0.004437142	0.009561236	0.024807995	0.025878302	2.32E-05	3.09E-06	0.80655231	0.1272999	28353.672
0.002216807	0.71877045	770.82922	438837.81	2972.5652	0.52578233	0.001429883	0.004431286	0.009520391	0.024753638	0.025865835	2.32E-05	3.06E-06	0.80655231	0.12742037	27838.796
0.002245805	0.72013386	772.48761	438165.68	2975.0918	0.52465357	0.001423149	0.004425513	0.009480368	0.024700339	0.025853288	2.32E-05	3.03E-06	0.80655231	0.12753881	27337.998
0.002274804	0.72147978	774.12291	437502.91	2977.5616	0.52354526	0.001416558	0.004419823	0.009441143	0.024648066	0.025840672	2.31E-05	3.01E-06	0.80655231	0.12765527	26850.728
0.002303802	0.7228086	775.73568	436849.28	2979.9763	0.52245679	0.001410107	0.004414213	0.009402692	0.024596791	0.025827995	2.31E-05	2.98E-06	0.80655231	0.12776979	26376.462
0.002332801	0.7241207	777.32644	436204.56	2982.3373	0.52138762	0.001403791	0.004408682	0.009364994	0.024546486	0.025815267	2.31E-05	2.96E-06	0.80655231	0.12788242	25914.704
0.002361799	0.72541645	778.89568	435568.56	2984.6464	0.52033717	0.001397605	0.004403229	0.009328027	0.024497125	0.025802497	2.31E-05	2.93E-06	0.80655231	0.12799321	25464.986
0.002390798	0.72669619	780.44391	434941.09	2986.905	0.51930494	0.001391547	0.004397852	0.009291772	0.024448681	0.025789691	2.30E-05	2.91E-06	0.80655231	0.1281022	25026.86
0.002419796	0.72796028	781.97158	434321.94	2989.1146	0.51829042	0.001385613	0.00439255	0.009256209	0.02440113	0.025776858	2.30E-05	2.88E-06	0.80655231	0.12820944	24599.902
0.002448795	0.72920903	783.47915	433710.94	2991.2765	0.51729312	0.001379798	0.004387321	0.009221318	0.024354448	0.025764005	2.30E-05	2.86E-06	0.80655231	0.12831496	24183.708
0.002477793	0.73044278	784.96707	433107.9	2993.3921	0.51631259	0.001374099	0.004382164	0.009187082	0.024308612	0.025751137	2.29E-05	2.84E-06	0.80655231	0.1284188	23777.895
0.00253579	0.73286645	787.88559	431925.06	2997.4895	0.51440004	0.001363037	0.004372062	0.009120505	0.02421939	0.025725384	2.29E-05	2.80E-06	0.80655231	0.12862161	22995.966
0.002593787	0.73523364	790.73037	430772.1	3001.4166	0.5125494	0.001352403	0.004362232	0.009056346	0.024133297	0.025699642	2.28E-05	2.76E-06	0.80655231	0.12881816	22251.392
0.002651784	0.73754654	793.50443	429647.81	3005.1823	0.51075755	0.001342172	0.004352665	0.00899448	0.024050178	0.02567395	2.28E-05	2.72E-06	0.80655231	0.12900871	21541.693
0.002709781	0.73980722	796.2106	428551.03	3008.7952	0.50902158	0.001332323	0.004343353	0.008934794	0.023969887	0.025648343	2.28E-05	2.69E-06	0.80655231	0.12919354	20864.61
0.002767778	0.74201762	798.85154	427480.69	3012.2631	0.5073388	0.001322837	0.004334286	0.00887718	0.023892289	0.025622851	2.27E-05	2.65E-06	0.80655231	0.12937287	20218.073
0.002825775	0.74417957	801.42975	426435.77	3015.5933	0.50570668	0.001313694	0.004325455	0.008821537	0.023817258	0.0255975	2.27E-05	2.62E-06	0.80655231	0.12954694	19600.189
0.002883772	0.7462948	803.94759	425415.32	3018.7928	0.50412288	0.001304877	0.004316854	0.008767773	0.023744674	0.025572312	2.26E-05	2.59E-06	0.80655231	0.12971597	19009.217
0.002941769	0.74836493	806.4073	424418.43	3021.8679	0.50258521	0.001296371	0.004308473	0.008715799	0.023674427	0.025547308	2.26E-05	2.56E-06	0.80655231	0.12988015	18443.557
0.002999766	0.75039151	808.81096	423444.25	3024.8246	0.5010916	0.00128816	0.004300306	0.008665533	0.023606413	0.025522505	2.26E-05	2.53E-06	0.80655231	0.13003967	17901.732
0.003057763	0.75237599	811.16059	422491.97	3027.6687	0.49964013	0.001280229	0.004292346	0.008616897	0.023540533	0.025497917	2.25E-05	2.50E-06	0.80655231	0.13019473	17382.38
0.00311576	0.75431978	813.45806	421560.83	3030.4054	0.49822898	0.001272566	0.004284585	0.008569819	0.023476696	0.025473559	2.25E-05	2.47E-06	0.80655231	0.13034549	16884.239
0.003173757	0.75622418	815.70516	420650.11	3033.0398	0.49685646	0.001265158	0.004277018	0.008524229	0.023414813	0.025449441	2.25E-05	2.45E-06	0.80655231	0.13049211	16406.142
0.003231753	0.75809045	817.9036	419759.11	3035.5765	0.49552096	0.001257993	0.004269637	0.008480064	0.023354804	0.025425573	2.24E-05	2.42E-06	0.80655231	0.13063475	15947.003
0.00328975	0.75991978	820.055	418887.17	3038.02	0.49422097	0.001251061	0.004262438	0.008437261	0.023296591	0.025401962	2.24E-05	2.40E-06	0.80655231	0.13077356	15505.816
0.003347747	0.7617133	822.16088	418033.68	3040.3745	0.49295508	0.001244351	0.004255414	0.008395765	0.0232401	0.025378615	2.24E-05	2.38E-06	0.80655231	0.13090868	15081.64
0.003405744	0.76347211	824.22272	417198.05	3042.6439	0.49172192	0.001237853	0.004248559	0.00835552	0.023185262	0.025355537	2.24E-05	2.36E-06	0.80655231	0.13104024	14673.602
0.003463741	0.76519724	826.2419	416379.69	3044.8319	0.49052024	0.001231559	0.004241869	0.008316474	0.023132011	0.025332734	2.23E-05	2.34E-06	0.80655231	0.13116838	14280.885
0.003521738	0.76688968	828.21978	415578.08	3046.9421	0.48934883	0.001225459	0.004235339	0.008278579	0.023080286	0.025310208	2.23E-05	2.32E-06	0.80655231	0.1312932	13902.727
0.003579735	0.76855037	830.15761	414792.7	3048.9777	0.48820655	0.001219545	0.004228962	0.008241789	0.023030027	0.025287962	2.23E-05	2.30E-06	0.80655231	0.13141483	13538.412
0.003637732	0.77018022	832.05662	414023.05	3050.9421	0.48709231	0.00121381	0.004222736	0.00820606	0.022981179	0.025265999	2.22E-05	2.28E-06	0.80655231	0.13153338	13187.272
0.003695729	0.7717801	833.91797	413268.67	3052.8382	0.48600509	0.001208246	0.004216654	0.008171351	0.022933687	0.025244318	2.22E-05	2.26E-06	0.80655231	0.13164895	12848.68
0.003753726	0.77335084	835.74277	412529.1	3054.6687	0.48494392	0.001202846	0.004210713	0.008137621	0.022887502	0.025222921	2.22E-05	2.24E-06	0.80655231	0.13176164	12522.046
0.003811723	0.77489324	837.5321	411803.91	3056.4365	0.48390788	0.001197604	0.004204909	0.008104834	0.022842574	0.025201808	2.22E-05	2.22E-06	0.80655231	0.13187155	12206.816
0.00386972	0.77640806	839.28697	411092.68	3058.1441	0.48289607	0.001192513	0.004199237	0.008072954	0.022798859	0.025180979	2.22E-05	2.21E-06	0.80655231	0.13197878	11902.471
0.003927717	0.77789606	841.00837	410395.02	3059.7939	0.48190767	0.001187568	0.004193693	0.008041946	0.022756313	0.025160432	2.21E-05	2.19E-06	0.80655231	0.13208341	11608.519
0.003985714	0.77935792	842.69724	409710.54	3061.3882	0.48094186	0.001182763	0.004188275	0.008011779	0.022714893	0.025140167	2.21E-05	2.18E-06	0.80655231	0.13218552	11324.497
0.004043711	0.78079434	844.35448	409038.87	3062.9292	0.4799979	0.001178092	0.004182977	0.007982422	0.02267456	0.025120182	2.21E-05	2.16E-06	0.80655231	0.1322852	11049.97
0.004101708	0.78220597	845.98097	408379.68	3064.4191	0.47907505	0.001173551	0.004177797	0.007953845	0.022635276	0.025100475	2.21E-05	2.15E-06	0.80655231	0.13238252	10784.525
0.004159705	0.78359345	847.57755	407732.6	3065.8598	0.47817262	0.001169134	0.004172731	0.00792602	0.022597005	0.025081044	2.20E-05	2.13E-06	0.80655231	0.13247757	10527.773
0.004217702	0.78495737	849.14501	407097.33	3067.2533	0.47728995	0.001164837	0.004167776	0.007898921	0.022559711	0.025061886	2.20E-05	2.12E-06	0.80655231	0.1325704	10279.345
0.004275699	0.78629834	850.68414	406473.54	3068.6013	0.4764264	0.001160656	0.004162929	0.007872523	0.022523362	0.025043	2.20E-05	2.11E-06	0.80655231	0.1326611	10038.893
0.004333696	0.78761691	852.19567	405860.93	3069.9056	0.47558136	0.001156587	0.004158187	0.0078468	0.022487927	0.025024383	2.20E-05	2.10E-06	0.80655231	0.13274972	9806.0871
0.004391693	0.78891364	853.68033	405259.21	3071.1679	0.47475427	0.001152625	0.004153546	0.007821729	0.022453374	0.025006031	2.20E-05	2.08E-06	0.80655231	0.13283632	9580.6136
0.00444969	0.79018906	855.13882	404668.11	3072.3896	0.47394455	0.001148766	0.004149005	0.007797289	0.022419674	0.024987942	2.20E-05	2.07E-06	0.80655231	0.13292098	9362.1757
0.004507686	0.79144366	856.5718	404087.34	3073.5724	0.47315167	0.001145008	0.004144559	0.007773458	0.0223868	0.024970113	2.19E-05	2.06E-06	0.80655231	0.13300375	9150.4914
0.004565683	0.79267795	857.97991	403516.64	3074.7177	0.47237514	0.001141346	0.004140207	0.007750215	0.022354725	0.024952541	2.19E-05	2.05E-06	0.80655231	0.13308468	8945.2931
0.00462368	0.79389241	859.36379	402955.78	3075.8268	0.47161445	0.001137777	0.004135947	0.007727541	0.022323423	0.024935222	2.19E-05	2.04E-06	0.80655231	0.13316384	8746.326
0.004739674	0.79626364	862.0612	401862.55	3077.9417	0.47013875	0.001130906	0.004127688	0.007683827	0.022263041	0.02490133	2.19E-05	2.02E-06	0.80655231	0.13331701	8366.1294
0.004855668	0.79856088	864.66862	400805.79	3079.9272	0.46872105	0.001124372	0.004119765	0.007642174	0.022205469	0.024868412	2.18E-05	2.00E-06	0.80655231	0.13346366	8008.1013
0.004971662	0.80078742	867.19032	399783.77	3081.7921	0.46735805	0.001118152	0.00411216	0.007602452	0.022150536	0.02483644	2.18E-05	1.98E-06	0.80655231	0.13360417	7670.6078
0.005087656	0.80294636	869.6303	398794.88	3083.5448	0.46604676	0.001112226	0.004104855	0.007564543	0.022098084	0.024805386	2.18E-05	1.96E-06	0.80655231	0.13373886	7352.1627
0.00520365	0.80504063	871.99232	397837.58	3085.1931	0.46478435	0.001106576	0.004097837	0.007528337	0.022047967	0.024775223	2.17E-05	1.95E-06	0.80655231	0.13386806	7051.4114
0.005319644	0.80707296	874.27991	396910.45	3086.7438	0.46356822	0.001101185	0.00409109	0.007493732	0.022000048	0.024745922	2.17E-05	1.93E-06	0.80655231	0.13399207	6767.1173
0.005435638	0.80904595	876.49637	396012.14	3088.2035	0.46239596	0.001096037	0.0040846	0.007460633	0.021954203	0.024717458	2.17E-05	1.92E-06	0.80655231	0.13411116	6498.149
0.005551632	0.81096204	878.64483	395141.39	3089.5782	0.46126531	0.001091117	0.004078355	0.007428954	0.021910313	0.024689802	2.16E-05	1.90E-06	0.80655231	0.13422559	6243.4699
0.005667626	0.81282354	880.72823	394297.02	3090.8734	0.46017417	0.001086413	0.004072343	0.007398614	0.021868271	0.02466293	2.16E-05	1.89E-06	0.80655231	0.1343356	6002.1285
0.005783619	0.81463263	882.74932	393477.89	3092.0941	0.45912058	0.001081912	0.004066553	0.007369536	0.021827975	0.024636815	2.16E-05	1.87E-06	0.80655231	0.13444143	5773.2503
0.005899613	0.8163914	884.71073	392682.96	3093.2453	0.45810271	0.001077601	0.004060973	0.007341653	0.02178933	0.024611432	2.16E-05	1.86E-06	0.80655231	0.13454327	5556.0301
0.006015607	0.81810178	886.61492	391911.21	3094.3311	0.45711884	0.001073471	0.004055594	0.007314897	0.021752249	0.024586756	2.15E-05	1.85E-06	0.80655231	0.13464132	5349.7258
0.006131601	0.81976566	888.46424	391161.7	3095.3557	0.45616736	0.001069511	0.004050407	0.007289208	0.021716649	0.024562765	2.15E-05	1.84E-06	0.80655231	0.13473579	5153.6523
0.006247595	0.82138478	890.26089	390433.54	3096.3229	0.45524676	0.001065712	0.004045402	0.007264531	0.021682452	0.024539436	2.15E-05	1.83E-06	0.80655231	0.13482683	4967.1764
0.006363589	0.82296084	892.00697	389725.88	3097.2362	0.45435562	0.001062066	0.004040571	0.007240811	0.021649587	0.024516745	2.15E-05	1.82E-06	0.80655231	0.13491462	4789.7121
0.006479583	0.82449543	893.70446	389037.9	3098.0988	0.45349263	0.001058564	0.004035906	0.007218	0.021617986	0.024494672	2.14E-05	1.81E-06	0.80655231	0.1349993	4620.7165
0.006595577	0.82599006	895.35525	388368.85	3098.9138	0.45265651	0.001055198	0.0040314	0.007196051	0.021587586	0.024473196	2.14E-05	1.80E-06	0.80655231	0.13508103	4459.686
0.006711571	0.82744618	896.96113	387718.01	3099.684	0.45184609	0.001051962	0.004027046	0.00717492	0.021558327	0.024452297	2.14E-05	1.79E-06	0.80655231	0.13515994	4306.1532
0.006827565	0.82886516	898.52381	387084.68	3100.4121	0.45106026	0.001048849	0.004022836	0.007154568	0.021530153	0.024431955	2.14E-05	1.78E-06	0.80655231	0.13523616	4159.6834
0.006943559	0.83024833	900.04489	386468.2	3101.1004	0.45029797	0.001045853	0.004018765	0.007134955	0.021503012	0.024412151	2.14E-05	1.77E-06	0.80655231	0.13530982	4019.8723
0.007059552	0.83159694	901.52591	385867.96	3101.7514	0.44955822	0.001042968	0.004014826	0.007116047	0.021476855	0.024392868	2.13E-05	1.77E-06	0.80655231	0.13538102	3886.3431
0.007175546	0.83291218	902.96835	385283.36	3102.3672	0.44884008	0.001040189	0.004011015	0.007097808	0.021451635	0.024374089	2.13E-05	1.76E-06	0.80655231	0.13544988	3758.745
0.00729154	0.83419519	904.37359	384713.83	3102.9497	0.44814266	0.00103751	0.004007324	0.007080208	0.021427308	0.024355795	2.13E-05	1.75E-06	0.80655231	0.1355165	3636.7502
0.007407534	0.83544707	905.74297	384158.83	3103.5009	0.44746512	0.001034926	0.00400375	0.007063217	0.021403832	0.024337973	2.13E-05	1.74E-06	0.80655231	0.13558097	3520.0528
0.007523528	0.83666886	907.07775	383617.86	3104.0225	0.44680666	0.001032434	0.004000288	0.007046807	0.02138117	0.024320605	2.13E-05	1.74E-06	0.80655231	0.13564339	3408.367
0.007639522	0.83786155	908.37916	383090.42	3104.5161	0.44616654	0.001030029	0.003996932	0.00703095	0.021359283	0.024303676	2.12E-05	1.73E-06	0.80655231	0.13570385	3301.4252
0.007755516	0.83902612	909.64834	382576.03	3104.9833	0.44554403	0.001027706	0.003993679	0.007015623	0.021338138	0.024287174	2.12E-05	1.72E-06	0.80655231	0.13576243	3198.9769
0.00787151	0.84016347	910.88639	382074.26	3105.4256	0.44493845	0.001025462	0.003990525	0.007000802	0.021317701	0.024271083	2.12E-05	1.72E-06	0.80655231	0.1358192	3100.7877
0.007987504	0.84127447	912.09439	381584.68	3105.8444	0.44434917	0.001023294	0.003987465	0.006986463	0.021297942	0.02425539	2.12E-05	1.71E-06	0.80655231	0.13587424	3006.6374
0.008103498	0.84235998	913.27333	381106.87	3106.2408	0.44377556	0.001021198	0.003984495	0.006972587	0.02127883	0.024240082	2.12E-05	1.71E-06	0.80655231	0.13592762	2916.3196
0.008219492	0.8434208	914.42419	380640.44	3106.6161	0.44321704	0.00101917	0.003981613	0.006959153	0.021260339	0.024225148	2.11E-05	1.70E-06	0.80655231	0.13597942	2829.6406
0.008335485	0.8444577	915.54788	380185.02	3106.9714	0.44267306	0.001017209	0.003978814	0.006946142	0.021242442	0.024210574	2.11E-05	1.70E-06	0.80655231	0.13602968	2746.4181
0.008451479	0.84547142	916.6453	379740.24	3107.3078	0.44214309	0.001015311	0.003976096	0.006933537	0.021225113	0.02419635	2.11E-05	1.69E-06	0.80655231	0.13607848	2666.481
0.008567473	0.84646269	917.7173	379305.78	3107.6262	0.44162661	0.001013472	0.003973455	0.006921321	0.02120833	0.024182465	2.11E-05	1.69E-06	0.80655231	0.13612586	2589.668
0.008799461	0.84838055	919.78824	378466.45	3108.2131	0.44063227	0.001009967	0.003968395	0.00689799	0.021176309	0.024155668	2.11E-05	1.68E-06	0.80655231	0.13621662	2444.8167
0.009031449	0.85021645	921.76683	377664.55	3108.7389	0.43968645	0.001006674	0.00396361	0.006876031	0.021146213	0.024130103	2.10E-05	1.67E-06	0.80655231	0.13630236	2310.7524
0.009263437	0.85197517	923.65872	376897.79	3109.2097	0.43878586	0.001003577	0.003959082	0.006855337	0.02111789	0.024105695	2.10E-05	1.66E-06	0.80655231	0.13638344	2186.4858
0.009495425	0.85366115	925.4691	376164.06	3109.631	0.43792752	0.001000659	0.003954792	0.006835811	0.021091206	0.024082375	2.10E-05	1.65E-06	0.80655231	0.13646022	2071.135
0.009727412	0.85527849	927.20279	375461.42	3110.0076	0.43710868	0.000997908	0.003950723	0.006817365	0.021066035	0.02406008	2.09E-05	1.65E-06	0.80655231	0.13653299	1963.9116
0.0099594	0.856831	928.86423	374788.05	3110.3438	0.43632683	0.00099531	0.00394686	0.006799919	0.021042266	0.024038748	2.09E-05	1.64E-06	0.80655231	0.13660203	1864.1098
0.010191388	0.85832225	930.45757	374142.29	3110.6436	0.43557965	0.000992855	0.00394319	0.006783402	0.021019797	0.024018325	2.09E-05	1.63E-06	0.80655231	0.13666759	1771.0959
0.010423376	0.85975552	931.98661	373522.59	3110.9105	0.43486503	0.000990532	0.003939699	0.006767746	0.020998534	0.023998758	2.09E-05	1.63E-06	0.80655231	0.13672992	1684.3004
0.010655364	0.86113389	933.45492	372927.5	3111.1475	0.43418099	0.000988331	0.003936376	0.006752892	0.020978393	0.023980001	2.08E-05	1.62E-06	0.80655231	0.13678923	1603.2101
0.010887351	0.86246025	934.86581	372355.68	3111.3575	0.43352573	0.000986244	0.003933211	0.006738785	0.020959295	0.023962007	2.08E-05	1.61E-06	0.80655231	0.13684571	1527.3619
0.011119339	0.86373728	936.22236	371805.89	3111.5429	0.43289757	0.000984263	0.003930192	0.006725374	0.020941169	0.023944736	2.08E-05	1.61E-06	0.80655231	0.13689954	1456.3371
0.011351327	0.86496748	937.52743	371276.96	3111.7061	0.43229496	0.000982381	0.003927311	0.006712614	0.020923952	0.023928148	2.08E-05	1.60E-06	0.80655231	0.1369509	1389.7564
0.011583315	0.8661532	938.78372	370767.8	3111.8491	0.43171646	0.000980591	0.00392456	0.006700462	0.020907581	0.023912207	2.08E-05	1.60E-06	0.80655231	0.13699993	1327.276
0.011815303	0.86729665	939.99372	370277.4	3111.9738	0.43116074	0.000978888	0.003921931	0.006688878	0.020892003	0.023896878	2.07E-05	1.60E-06	0.80655231	0.13704678	1268.5835
0.012047291	0.86839989	941.15978	369804.81	3112.0818	0.43062655	0.000977265	0.003919416	0.006677828	0.020877166	0.023882131	2.07E-05	1.59E-06	0.80655231	0.13709157	1213.3944
0.012279278	0.86946486	942.28409	369349.14	3112.1746	0.43011274	0.000975718	0.003917008	0.006667278	0.020863025	0.023867934	2.07E-05	1.59E-06	0.80655231	0.13713444	1161.4498
0.012511266	0.87049337	943.3687	368909.56	3112.2537	0.42961822	0.000974241	0.003914702	0.006657197	0.020849535	0.023854261	2.07E-05	1.58E-06	0.80655231	0.13717549	1112.5133
0.012743254	0.87148714	944.41555	368485.28	3112.3202	0.42914201	0.000972832	0.003912492	0.006647558	0.020836657	0.023841084	2.07E-05	1.58E-06	0.80655231	0.13721482	1066.3689
0.012975242	0.87244779	945.42645	368075.58	3112.3754	0.42868315	0.000971484	0.003910372	0.006638333	0.020824354	0.02382838	2.06E-05	1.58E-06	0.80655231	0.13725254	1022.8189
0.01320723	0.87337681	946.4031	367679.76	3112.4201	0.42824076	0.000970196	0.003908338	0.0066295	0.020812592	0.023816125	2.06E-05	1.57E-06	0.80655231	0.13728874	981.68231
0.013439217	0.87427566	947.34709	367297.17	3112.4554	0.42781404	0.000968962	0.003906384	0.006621035	0.020801339	0.023804298	2.06E-05	1.57E-06	0.80655231	0.13732349	942.79301
0.013671205	0.87514567	948.25993	366927.2	3112.4821	0.42740221	0.000967781	0.003904507	0.006612918	0.020790566	0.023792878	2.06E-05	1.57E-06	0.80655231	0.13735688	905.99846
0.013903193	0.87598812	949.14304	366569.29	3112.5009	0.42700454	0.000966649	0.003902701	0.006605128	0.020780246	0.023781847	2.06E-05	1.56E-06	0.80655231	0.13738897	871.15839
0.014135181	0.8768042	949.99776	366222.88	3112.5127	0.42662036	0.000965563	0.003900965	0.00659765	0.020770352	0.023771185	2.06E-05	1.56E-06	0.80655231	0.13741985	838.14367
0.014367169	0.87759507	950.82534	365887.47	3112.5179	0.42624904	0.000964521	0.003899293	0.006590464	0.020760862	0.023760876	2.05E-05	1.56E-06	0.80655231	0.13744956	806.83528
0.014599157	0.87836178	951.62699	365562.57	3112.5173	0.42588997	0.000963521	0.003897683	0.006583556	0.020751753	0.023750905	2.05E-05	1.56E-06	0.80655231	0.13747818	777.12341
0.014831144	0.87910536	952.40381	365247.74	3112.5113	0.42554259	0.00096256	0.003896131	0.006576912	0.020743005	0.023741255	2.05E-05	1.55E-06	0.80655231	0.13750575	748.90665
0.015063132	0.87982677	953.15688	364942.52	3112.5004	0.42520638	0.000961635	0.003894636	0.006570516	0.020734599	0.023731913	2.05E-05	1.55E-06	0.80655231	0.13753233	722.09124
0.01529512	0.88052693	953.88721	364646.53	3112.485	0.42488083	0.000960746	0.003893193	0.006564358	0.020726516	0.023722865	2.05E-05	1.55E-06	0.80655231	0.13755797	696.59038
0.015527108	0.8812067	954.59574	364359.37	3112.4657	0.42456547	0.000959891	0.0038918	0.006558423	0.020718741	0.023714098	2.05E-05	1.55E-06	0.80655231	0.13758271	672.32367
0.015991083	0.88250831	955.95097	363810.12	3112.4164	0.42396357	0.000958273	0.003889156	0.006547185	0.020704048	0.023697361	2.05E-05	1.54E-06	0.80655231	0.13762966	627.19997
0.016408662	0.88361784	957.1047	363342.52	3112.3617	0.42345251	0.000956914	0.003886927	0.006537733	0.020691727	0.023683146	2.04E-05	1.54E-06	0.80655231	0.13766927	590.11562
0.01682624	0.88467291	958.20051	362898.4	3112.2989	0.42296824	0.000955641	0.003884826	0.006528855	0.020680184	0.023669673	2.04E-05	1.54E-06	0.80655231	0.13770656	556.01928
0.017243818	0.88567718	959.24241	362476.13	3112.2295	0.42250883	0.000954445	0.003882846	0.006520502	0.020669352	0.023656889	2.04E-05	1.53E-06	0.80655231	0.13774172	524.61227
0.017661396	0.88663404	960.23406	362074.23	3112.1545	0.4220725	0.000953319	0.003880975	0.006512632	0.020659174	0.023644746	2.04E-05	1.53E-06	0.80655231	0.13777493	495.63147
0.018078974	0.88754658	961.17881	361691.33	3112.075	0.42165764	0.00095226	0.003879207	0.006505207	0.020649596	0.023633199	2.04E-05	1.53E-06	0.80655231	0.13780633	468.84401
0.018496552	0.88841762	962.07974	361326.19	3111.9919	0.42126278	0.00095126	0.003877532	0.006498193	0.02064057	0.023622207	2.03E-05	1.53E-06	0.80655231	0.13783606	444.04349
0.01891413	0.88924979	962.93966	360977.68	3111.9059	0.42088659	0.000950316	0.003875945	0.006491558	0.020632053	0.023611735	2.03E-05	1.52E-06	0.80655231	0.13786423	421.04645
0.019331708	0.89004549	963.76116	360644.73	3111.8176	0.42052783	0.000949423	0.003874438	0.006485275	0.020624006	0.023601748	2.03E-05	1.52E-06	0.80655231	0.13789096	399.68949
0.019749286	0.89080694	964.54664	360326.39	3111.7277	0.42018537	0.000948578	0.003873007	0.006479317	0.020616394	0.023592215	2.03E-05	1.52E-06	0.80655231	0.13791636	379.82675
0.020166864	0.89153619	965.29829	360021.75	3111.6366	0.41985818	0.000947777	0.003871646	0.006473662	0.020609185	0.023583107	2.03E-05	1.52E-06	0.80655231	0.13794051	361.32776
0.020584442	0.89223514	966.01815	359730	3111.5446	0.41954531	0.000947016	0.003870351	0.006468288	0.020602351	0.023574397	2.03E-05	1.52E-06	0.80655231	0.1379635	344.07553
0.02100202	0.89290554	966.70808	359450.38	3111.4522	0.41924589	0.000946294	0.003869116	0.006463176	0.020595863	0.023566062	2.03E-05	1.51E-06	0.80655231	0.13798541	327.96501
0.021419598	0.89354903	967.36984	359182.18	3111.3597	0.41895909	0.000945607	0.003867939	0.006458308	0.020589699	0.02355808	2.02E-05	1.51E-06	0.80655231	0.1380063	312.90165
0.021837176	0.8941671	968.00503	358924.74	3111.2672	0.41868417	0.000944953	0.003866815	0.006453668	0.020583836	0.023550428	2.02E-05	1.51E-06	0.80655231	0.13802625	298.8002
0.022254754	0.89476117	968.61515	358677.47	3111.175	0.41842045	0.00094433	0.003865741	0.006449241	0.020578254	0.023543088	2.02E-05	1.51E-06	0.80655231	0.1380453	285.58367
0.022672332	0.89533255	969.20158	358439.79	3111.0834	0.41816728	0.000943736	0.003864714	0.006445014	0.020572935	0.023536043	2.02E-05	1.51E-06	0.80655231	0.13806353	273.18239
0.023089911	0.89588246	969.76563	358211.19	3110.9923	0.41792406	0.000943168	0.00386373	0.006440974	0.020567861	0.023529275	2.02E-05	1.51E-06	0.80655231	0.13808097	261.53324
0.023507489	0.89641202	970.30849	357991.18	3110.9021	0.41769024	0.000942626	0.003862789	0.006437109	0.020563017	0.023522769	2.02E-05	1.50E-06	0.80655231	0.13809768	250.57891
0.023925067	0.8969223	970.83129	357779.29	3110.8127	0.41746531	0.000942108	0.003861886	0.006433409	0.020558388	0.023516511	2.02E-05	1.50E-06	0.80655231	0.1381137	240.26729
0.024342645	0.89741428	971.33507	357575.12	3110.7243	0.4172488	0.000941612	0.00386102	0.006429865	0.020553962	0.023510488	2.02E-05	1.50E-06	0.80655231	0.13812907	230.55093
0.024760223	0.89788891	971.82081	357378.25	3110.6369	0.41704025	0.000941136	0.003860188	0.006426466	0.020549725	0.023504687	2.02E-05	1.50E-06	0.80655231	0.13814382	221.38656
0.025177801	0.89834703	972.28942	357188.33	3110.5507	0.41683924	0.000940681	0.003859389	0.006423204	0.020545668	0.023499097	2.01E-05	1.50E-06	0.80655231	0.138158	212.73469
0.025595379	0.89878947	972.74176	357005	3110.4656	0.41664541	0.000940244	0.003858621	0.006420072	0.020541778	0.023493706	2.01E-05	1.50E-06	0.80655231	0.13817163	204.55916
0.026012957	0.89921699	973.17864	356827.94	3110.3817	0.41645837	0.000939824	0.003857882	0.006417063	0.020538047	0.023488505	2.01E-05	1.50E-06	0.80655231	0.13818474	196.82689
0.026848113	0.90003006	974.00895	356491.42	3110.2176	0.41610335	0.000939034	0.003856486	0.006411385	0.020531024	0.023478635	2.01E-05	1.50E-06	0.80655231	0.13820951	182.57334
0.027599754	0.90071752	974.71041	356207.13	3110.0743	0.4158039	0.000938373	0.003855315	0.00640663	0.020525162	0.023470312	2.01E-05	1.49E-06	0.80655231	0.1382303	170.98171
0.028351394	0.90136653	975.37214	355938.94	3109.9351	0.4155218	0.000937755	0.003854216	0.00640218	0.020519691	0.023462472	2.01E-05	1.49E-06	0.80655231	0.13824979	160.42265
0.029103035	0.90198013	975.99733	355685.56	3109.8	0.41525563	0.000937177	0.003853184	0.006398008	0.020514575	0.023455077	2.01E-05	1.49E-06	0.80655231	0.1382681	150.78081
0.029854675	0.90256106	976.58885	355445.82	3109.6691	0.41500411	0.000936635	0.003852214	0.006394088	0.020509782	0.02344809	2.01E-05	1.49E-06	0.80655231	0.13828532	141.95633
0.030606316	0.9031118	977.14928	355218.69	3109.5421	0.41476609	0.000936125	0.003851299	0.0063904	0.020505283	0.023441479	2.01E-05	1.49E-06	0.80655231	0.13830156	133.8622
0.031357956	0.90363459	977.68094	355003.21	3109.4192	0.41454054	0.000935646	0.003850435	0.006386924	0.020501053	0.023435216	2.00E-05	1.49E-06	0.80655231	0.13831688	126.42243
0.032109597	0.90413144	978.18594	354798.54	3109.3001	0.41432653	0.000935194	0.003849619	0.006383643	0.02049707	0.023429274	2.00E-05	1.49E-06	0.80655231	0.13833137	119.57042
0.032861237	0.90460421	978.66621	354603.89	3109.1847	0.4141232	0.000934767	0.003848846	0.006380541	0.020493313	0.023423631	2.00E-05	1.49E-06	0.80655231	0.13834508	113.24767
0.033612878	0.90505458	979.12349	354418.56	3109.073	0.4139298	0.000934363	0.003848114	0.006377604	0.020489764	0.023418263	2.00E-05	1.48E-06	0.80655231	0.13835808	107.40262
0.034364518	0.90548406	979.55935	354241.91	3108.9648	0.41374562	0.000933981	0.003847418	0.006374821	0.020486407	0.023413153	2.00E-05	1.48E-06	0.80655231	0.13837042	101.9897
0.035116158	0.90589407	979.97525	354073.35	3108.86	0.41357002	0.000933618	0.003846758	0.006372178	0.020483226	0.023408281	2.00E-05	1.48E-06	0.80655231	0.13838214	96.968551
0.035867799	0.90628588	980.37252	353912.34	3108.7584	0.41340244	0.000933274	0.003846129	0.006369667	0.02048021	0.023403633	2.00E-05	1.48E-06	0.80655231	0.1383933	92.303302
0.036619439	0.90666067	980.75236	353758.4	3108.6601	0.41324233	0.000932947	0.00384553	0.006367277	0.020477345	0.023399193	2.00E-05	1.48E-06	0.80655231	0.13840393	87.962019
0.03737108	0.9070195	981.11589	353611.06	3108.5647	0.41308921	0.000932636	0.003844959	0.006365001	0.020474622	0.023394948	2.00E-05	1.48E-06	0.80655231	0.13841407	83.9162
0.03812272	0.90736338	981.46413	353469.93	3108.4723	0.41294264	0.000932339	0.003844414	0.00636283	0.020472029	0.023390884	2.00E-05	1.48E-06	0.80655231	0.13842374	80.140349
0.038874361	0.90769321	981.79802	353334.61	3108.3826	0.41280221	0.000932056	0.003843893	0.006360757	0.020469558	0.023386992	2.00E-05	1.48E-06	0.80655231	0.13843299	76.611609
0.039626001	0.90800984	982.11843	353204.75	3108.2957	0.41266753	0.000931786	0.003843395	0.006358776	0.0204672	0.023383259	2.00E-05	1.48E-06	0.80655231	0.13844184	73.309443
0.040377642	0.90831404	982.42616	353080.03	3108.2114	0.41253827	0.000931528	0.003842917	0.006356881	0.020464949	0.023379678	1.99E-05	1.48E-06	0.80655231	0.13845031	70.215366
0.041	0.90860654	982.72194	352960.15	3108.1295	0.4124141	0.000931323	0.003842537	0.006355373	0.02046316	0.023376819	1.99E-05	1.48E-06	0.80655231	0.13845705	67.312705
